%OpenBCI Raw EEG Data
%Number of channels = 8
%Sample Rate = 250 Hz
%Board = OpenBCI_GUI$BoardCytonSerial
Sample Index, EXG Channel 0, EXG Channel 1, EXG Channel 2, EXG Channel 3, EXG Channel 4, EXG Channel 5, EXG Channel 6, EXG Channel 7, Accel Channel 0, Accel Channel 1, Accel Channel 2, Other, Other, Other, Other, Other, Other, Other, Analog Channel 0, Analog Channel 1, Analog Channel 2, Timestamp, Timestamp (Formatted)
0.0, 0.0, 0.0, 0.0, 0.0, 0.0, 0.0, 0.0, 0.0, 0.0, 0.0, 0.0, 193.0, 0.0, 1.0, 1.0, 0.0, 0.0, 1.0, 1.0, 256.0, 1.0, 1.60646844530799E9, 2020-11-27 14:59:05.307
1.0, -33416.05859375, 14232.830078125, -33341.76171875, 34791.47265625, 490.2631530761719, -2690.591064453125, 23179.451171875, 32961.87109375, 0.0, 0.0, 0.0, 193.0, 0.0, 1.0, 1.0, 0.0, 0.0, 1.0, 1.0, 256.0, 1.0, 1.606468445367828E9, 2020-11-27 14:59:05.367
2.0, -33557.1640625, 14094.3837890625, -33469.703125, 34721.66796875, 417.5752868652344, -2754.91943359375, 23075.359375, 32901.7890625, 0.0, 0.0, 0.0, 193.0, 0.0, 1.0, 1.0, 0.0, 0.0, 1.0, 1.0, 256.0, 1.0, 1.606468445367846E9, 2020-11-27 14:59:05.367
3.0, -33588.12109375, 14081.017578125, -33475.35546875, 34647.81640625, 418.5364074707031, -2740.8154296875, 23071.3125, 32931.7421875, 0.0, 0.0, 0.0, 193.0, 0.0, 1.0, 1.0, 0.0, 0.0, 1.0, 1.0, 256.0, 1.0, 1.60646844536785E9, 2020-11-27 14:59:05.367
4.0, -33325.62109375, 14340.677734375, -33239.234375, 34864.18359375, 572.115234375, -2618.484375, 23238.125, 33050.3828125, 0.0, 0.0, 0.0, 193.0, 0.0, 1.0, 1.0, 0.0, 0.0, 1.0, 1.0, 256.0, 1.0, 1.606468445367854E9, 2020-11-27 14:59:05.367
5.0, -33323.6796875, 14337.4140625, -33244.6875, 34947.9140625, 538.5875854492188, -2642.132568359375, 23231.486328125, 33010.91015625, 0.0, 0.0, 0.0, 193.0, 0.0, 1.0, 1.0, 0.0, 0.0, 1.0, 1.0, 256.0, 1.0, 1.606468445367858E9, 2020-11-27 14:59:05.367
6.0, -33421.9140625, 14239.1787109375, -33331.41015625, 34883.11328125, 476.2038879394531, -2681.53857421875, 23171.001953125, 32959.90234375, 0.0, 0.0, 0.0, 193.0, 0.0, 1.0, 1.0, 0.0, 0.0, 1.0, 1.0, 256.0, 1.0, 1.606468445367862E9, 2020-11-27 14:59:05.367
7.0, -33551.10546875, 14104.8662109375, -33459.93359375, 34793.484375, 413.93194580078125, -2739.697998046875, 23084.009765625, 32901.67578125, 0.0, 0.0, 0.0, 193.0, 0.0, 1.0, 1.0, 0.0, 0.0, 1.0, 1.0, 256.0, 1.0, 1.606468445367866E9, 2020-11-27 14:59:05.367
8.0, -33562.91015625, 14089.33203125, -33481.83984375, 34771.625, 430.44989013671875, -2750.985595703125, 23059.265625, 32918.21875, 0.0, 0.0, 0.0, 193.0, 0.0, 1.0, 1.0, 0.0, 0.0, 1.0, 1.0, 256.0, 1.0, 1.606468445367869E9, 2020-11-27 14:59:05.367
9.0, -33317.9765625, 14341.75, -33239.79296875, 34890.22265625, 575.3338623046875, -2620.160888671875, 23225.65234375, 33026.46875, 0.0, 0.0, 0.0, 193.0, 0.0, 1.0, 1.0, 0.0, 0.0, 1.0, 1.0, 256.0, 1.0, 1.606468445367873E9, 2020-11-27 14:59:05.367
10.0, -33296.56640625, 14359.9228515625, -33210.80078125, 34935.6875, 567.8236694335938, -2598.7255859375, 23267.248046875, 33002.3046875, 0.0, 0.0, 0.0, 193.0, 0.0, 1.0, 1.0, 0.0, 0.0, 1.0, 1.0, 256.0, 1.0, 1.606468445367877E9, 2020-11-27 14:59:05.367
11.0, -33383.69140625, 14267.296875, -33300.609375, 34902.5390625, 537.6935424804688, -2637.77392578125, 23209.24609375, 32953.8671875, 0.0, 0.0, 0.0, 193.0, 0.0, 1.0, 1.0, 0.0, 0.0, 1.0, 1.0, 256.0, 1.0, 1.606468445367881E9, 2020-11-27 14:59:05.367
12.0, -33500.4375, 14145.994140625, -33416.03515625, 34852.11328125, 486.9103698730469, -2692.513427734375, 23120.845703125, 32910.55078125, 0.0, 0.0, 0.0, 193.0, 0.0, 1.0, 1.0, 0.0, 0.0, 1.0, 1.0, 256.0, 1.0, 1.606468445367886E9, 2020-11-27 14:59:05.367
13.0, -33516.9765625, 14132.1806640625, -33433.53515625, 34853.20703125, 502.5566101074219, -2687.17138671875, 23113.2890625, 32950.0703125, 0.0, 0.0, 0.0, 193.0, 0.0, 1.0, 1.0, 0.0, 0.0, 1.0, 1.0, 256.0, 1.0, 1.60646844536789E9, 2020-11-27 14:59:05.367
14.0, -33296.4296875, 14360.9501953125, -33218.22265625, 35019.99609375, 626.5640869140625, -2568.01416015625, 23268.052734375, 33070.140625, 0.0, 0.0, 0.0, 193.0, 0.0, 1.0, 1.0, 0.0, 0.0, 1.0, 1.0, 256.0, 1.0, 1.606468445367894E9, 2020-11-27 14:59:05.367
15.0, -33299.89453125, 14357.84375, -33216.43359375, 34996.4609375, 590.4436645507812, -2571.2998046875, 23284.615234375, 33045.0625, 0.0, 0.0, 0.0, 193.0, 0.0, 1.0, 1.0, 0.0, 0.0, 1.0, 1.0, 256.0, 1.0, 1.606468445367897E9, 2020-11-27 14:59:05.367
16.0, -33400.546875, 14253.7958984375, -33315.7421875, 34900.19140625, 524.7965698242188, -2630.7109375, 23212.3984375, 32993.609375, 0.0, 0.0, 0.0, 193.0, 0.0, 1.0, 1.0, 0.0, 0.0, 1.0, 1.0, 256.0, 1.0, 1.606468445426049E9, 2020-11-27 14:59:05.426
17.0, -33534.23046875, 14126.8388671875, -33435.234375, 34854.6171875, 429.60052490234375, -2714.418212890625, 23114.36328125, 32935.16015625, 0.0, 0.0, 0.0, 193.0, 0.0, 1.0, 1.0, 0.0, 0.0, 1.0, 1.0, 256.0, 1.0, 1.606468445426066E9, 2020-11-27 14:59:05.426
18.0, -33551.734375, 14116.6015625, -33446.234375, 34864.67578125, 421.3080139160156, -2728.52197265625, 23087.919921875, 32945.91015625, 0.0, 0.0, 0.0, 193.0, 0.0, 1.0, 1.0, 0.0, 0.0, 1.0, 1.0, 256.0, 1.0, 1.606468445426071E9, 2020-11-27 14:59:05.426
19.0, -33342.1171875, 14331.111328125, -33241.9140625, 34990.0, 540.0181274414062, -2620.58544921875, 23225.8984375, 33036.03515625, 0.0, 0.0, 0.0, 193.0, 0.0, 1.0, 1.0, 0.0, 0.0, 1.0, 1.0, 256.0, 1.0, 1.606468445426074E9, 2020-11-27 14:59:05.426
20.0, -33336.8203125, 14327.4677734375, -33246.07421875, 35002.62890625, 521.935546875, -2629.39208984375, 23230.904296875, 33002.55078125, 0.0, 0.0, 0.0, 193.0, 0.0, 1.0, 1.0, 0.0, 0.0, 1.0, 1.0, 256.0, 1.0, 1.606468445426078E9, 2020-11-27 14:59:05.426
21.0, -33427.390625, 14238.5966796875, -33325.46484375, 34896.7734375, 465.0503845214844, -2660.326904296875, 23178.4453125, 32952.86328125, 0.0, 0.0, 0.0, 193.0, 0.0, 1.0, 1.0, 0.0, 0.0, 1.0, 1.0, 256.0, 1.0, 1.606468445426082E9, 2020-11-27 14:59:05.426
22.0, -33523.12109375, 14127.7099609375, -33436.53125, 34741.046875, 430.44989013671875, -2693.206298828125, 23102.29296875, 32915.71484375, 0.0, 0.0, 0.0, 193.0, 0.0, 1.0, 1.0, 0.0, 0.0, 1.0, 1.0, 256.0, 1.0, 1.606468445426085E9, 2020-11-27 14:59:05.426
23.0, -33513.22265625, 14129.9677734375, -33443.73046875, 34830.4296875, 448.26422119140625, -2682.835205078125, 23090.53515625, 32940.97265625, 0.0, 0.0, 0.0, 193.0, 0.0, 1.0, 1.0, 0.0, 0.0, 1.0, 1.0, 256.0, 1.0, 1.606468445426089E9, 2020-11-27 14:59:05.426
24.0, -33306.734375, 14352.30078125, -33229.109375, 35190.3828125, 550.277587890625, -2610.147216796875, 23234.837890625, 33035.07421875, 0.0, 0.0, 0.0, 193.0, 0.0, 1.0, 1.0, 0.0, 0.0, 1.0, 1.0, 256.0, 1.0, 1.606468445426128E9, 2020-11-27 14:59:05.426
25.0, -33334.09375, 14334.888671875, -33240.53125, 35204.30859375, 529.4680786132812, -2638.131591796875, 23231.77734375, 33000.13671875, 0.0, 0.0, 0.0, 193.0, 0.0, 1.0, 1.0, 0.0, 0.0, 1.0, 1.0, 256.0, 1.0, 1.606468445426132E9, 2020-11-27 14:59:05.426
26.0, -33436.95703125, 14232.0478515625, -33337.78125, 35086.94140625, 478.1037902832031, -2683.86328125, 23165.458984375, 32951.90234375, 0.0, 0.0, 0.0, 193.0, 0.0, 1.0, 1.0, 0.0, 0.0, 1.0, 1.0, 256.0, 1.0, 1.606468445426136E9, 2020-11-27 14:59:05.426
27.0, -33548.6484375, 14121.787109375, -33441.96484375, 34994.0, 424.54901123046875, -2729.32666015625, 23094.55859375, 32917.703125, 0.0, 0.0, 0.0, 193.0, 0.0, 1.0, 1.0, 0.0, 0.0, 1.0, 1.0, 256.0, 1.0, 1.60646844542614E9, 2020-11-27 14:59:05.426
28.0, -33566.05859375, 14112.533203125, -33449.62890625, 34966.0390625, 436.59661865234375, -2715.602783203125, 23090.603515625, 32941.73046875, 0.0, 0.0, 0.0, 193.0, 0.0, 1.0, 1.0, 0.0, 0.0, 1.0, 1.0, 256.0, 1.0, 1.606468445426144E9, 2020-11-27 14:59:05.426
29.0, -33372.25, 14319.64453125, -33245.91796875, 35048.16015625, 535.7936401367188, -2599.440673828125, 23230.14453125, 33030.15625, 0.0, 0.0, 0.0, 193.0, 0.0, 1.0, 1.0, 0.0, 0.0, 1.0, 1.0, 256.0, 1.0, 1.606468445426148E9, 2020-11-27 14:59:05.426
30.0, -33367.9140625, 14318.4599609375, -33247.2578125, 35024.9375, 517.9569702148438, -2604.58154296875, 23230.904296875, 32999.7109375, 0.0, 0.0, 0.0, 193.0, 0.0, 1.0, 1.0, 0.0, 0.0, 1.0, 1.0, 256.0, 1.0, 1.606468445426152E9, 2020-11-27 14:59:05.426
31.0, -33451.21875, 14235.84765625, -33327.0078125, 34963.73828125, 475.1310119628906, -2642.37841796875, 23171.560546875, 32957.1328125, 0.0, 0.0, 0.0, 193.0, 0.0, 1.0, 1.0, 0.0, 0.0, 1.0, 1.0, 256.0, 1.0, 1.606468445485022E9, 2020-11-27 14:59:05.485
32.0, -33559.5546875, 14125.8994140625, -33432.77734375, 34868.7421875, 423.6325988769531, -2691.619384765625, 23106.986328125, 32915.46875, 0.0, 0.0, 0.0, 193.0, 0.0, 1.0, 1.0, 0.0, 0.0, 1.0, 1.0, 256.0, 1.0, 1.606468445485041E9, 2020-11-27 14:59:05.485
33.0, -33568.54296875, 14107.1015625, -33463.375, 35010.05078125, 429.60052490234375, -2727.51611328125, 23071.984375, 32929.05859375, 0.0, 0.0, 0.0, 193.0, 0.0, 1.0, 1.0, 0.0, 0.0, 1.0, 1.0, 256.0, 1.0, 1.606468445485045E9, 2020-11-27 14:59:05.485
34.0, -33371.8671875, 14314.5263671875, -33260.109375, 35222.16796875, 532.3738403320312, -2633.124755859375, 23206.36328125, 33024.2109375, 0.0, 0.0, 0.0, 193.0, 0.0, 1.0, 1.0, 0.0, 0.0, 1.0, 1.0, 256.0, 1.0, 1.606468445485049E9, 2020-11-27 14:59:05.485
35.0, -33368.1796875, 14320.091796875, -33243.94921875, 35174.24609375, 513.8665771484375, -2621.703125, 23225.517578125, 33000.42578125, 0.0, 0.0, 0.0, 193.0, 0.0, 1.0, 1.0, 0.0, 0.0, 1.0, 1.0, 256.0, 1.0, 1.606468445485052E9, 2020-11-27 14:59:05.485
36.0, -33459.64453125, 14230.9970703125, -33324.5703125, 34977.70703125, 468.38079833984375, -2638.37744140625, 23179.517578125, 32953.82421875, 0.0, 0.0, 0.0, 193.0, 0.0, 1.0, 1.0, 0.0, 0.0, 1.0, 1.0, 256.0, 1.0, 1.606468445485056E9, 2020-11-27 14:59:05.485
37.0, -33547.5546875, 14119.73046875, -33445.76171875, 34973.39453125, 429.2652282714844, -2720.52001953125, 23088.345703125, 32909.23046875, 0.0, 0.0, 0.0, 193.0, 0.0, 1.0, 1.0, 0.0, 0.0, 1.0, 1.0, 256.0, 1.0, 1.60646844548506E9, 2020-11-27 14:59:05.485
38.0, -33564.13671875, 14105.2470703125, -33464.828125, 35123.59765625, 432.2156677246094, -2741.396728515625, 23065.94921875, 32925.97265625, 0.0, 0.0, 0.0, 193.0, 0.0, 1.0, 1.0, 0.0, 0.0, 1.0, 1.0, 256.0, 1.0, 1.606468445485064E9, 2020-11-27 14:59:05.485
39.0, -33369.74609375, 14316.224609375, -33259.73046875, 35279.1875, 536.2630615234375, -2630.6884765625, 23211.794921875, 33027.16015625, 0.0, 0.0, 0.0, 193.0, 0.0, 1.0, 1.0, 0.0, 0.0, 1.0, 1.0, 256.0, 1.0, 1.606468445485068E9, 2020-11-27 14:59:05.485
40.0, -33358.01171875, 14321.34375, -33250.34375, 35243.359375, 528.84228515625, -2622.8876953125, 23229.921875, 33002.08203125, 0.0, 0.0, 0.0, 193.0, 0.0, 1.0, 1.0, 0.0, 0.0, 1.0, 1.0, 256.0, 1.0, 1.606468445485072E9, 2020-11-27 14:59:05.485
41.0, -33440.51171875, 14237.4794921875, -33328.3515625, 35152.54296875, 477.6791076660156, -2658.315185546875, 23181.462890625, 32960.55078125, 0.0, 0.0, 0.0, 193.0, 0.0, 1.0, 1.0, 0.0, 0.0, 1.0, 1.0, 256.0, 1.0, 1.606468445485075E9, 2020-11-27 14:59:05.485
42.0, -33543.77734375, 14132.0244140625, -33426.4296875, 35052.18359375, 428.6170349121094, -2700.068359375, 23114.67578125, 32924.609375, 0.0, 0.0, 0.0, 193.0, 0.0, 1.0, 1.0, 0.0, 0.0, 1.0, 1.0, 256.0, 1.0, 1.60646844548508E9, 2020-11-27 14:59:05.485
43.0, -33560.47265625, 14112.689453125, -33444.9375, 35015.125, 439.7034912109375, -2701.4541015625, 23088.92578125, 32939.33984375, 0.0, 0.0, 0.0, 193.0, 0.0, 1.0, 1.0, 0.0, 0.0, 1.0, 1.0, 256.0, 1.0, 1.606468445485083E9, 2020-11-27 14:59:05.485
44.0, -33362.9296875, 14316.8955078125, -33253.5625, 35152.07421875, 544.1531982421875, -2605.632080078125, 23221.025390625, 33032.34375, 0.0, 0.0, 0.0, 193.0, 0.0, 1.0, 1.0, 0.0, 0.0, 1.0, 1.0, 256.0, 1.0, 1.606468445485087E9, 2020-11-27 14:59:05.485
45.0, -33353.71875, 14320.1806640625, -33253.6484375, 35201.3359375, 527.6129150390625, -2619.043212890625, 23224.869140625, 33007.6484375, 0.0, 0.0, 0.0, 193.0, 0.0, 1.0, 1.0, 0.0, 0.0, 1.0, 1.0, 256.0, 1.0, 1.606468445485092E9, 2020-11-27 14:59:05.485
46.0, -33433.11328125, 14227.2421875, -33346.56640625, 35134.16796875, 485.010498046875, -2668.4853515625, 23161.681640625, 32955.25390625, 0.0, 0.0, 0.0, 193.0, 0.0, 1.0, 1.0, 0.0, 0.0, 1.0, 1.0, 256.0, 1.0, 1.606468445546252E9, 2020-11-27 14:59:05.546
47.0, -33529.5390625, 14125.0498046875, -33441.58203125, 35048.18359375, 439.79290771484375, -2706.483154296875, 23097.375, 32917.8828125, 0.0, 0.0, 0.0, 193.0, 0.0, 1.0, 1.0, 0.0, 0.0, 1.0, 1.0, 256.0, 1.0, 1.606468445546306E9, 2020-11-27 14:59:05.546
48.0, -33558.8203125, 14110.521484375, -33451.6875, 35012.8203125, 447.325439453125, -2697.698974609375, 23088.12109375, 32943.9453125, 0.0, 0.0, 0.0, 193.0, 0.0, 1.0, 1.0, 0.0, 0.0, 1.0, 1.0, 256.0, 1.0, 1.60646844554631E9, 2020-11-27 14:59:05.546
49.0, -33369.58984375, 14320.740234375, -33246.7421875, 35221.05078125, 538.7664184570312, -2602.8828125, 23226.45703125, 33040.4140625, 0.0, 0.0, 0.0, 193.0, 0.0, 1.0, 1.0, 0.0, 0.0, 1.0, 1.0, 256.0, 1.0, 1.606468445546314E9, 2020-11-27 14:59:05.546
50.0, -33356.22265625, 14331.2451171875, -33237.78125, 35277.7109375, 522.5614013671875, -2605.498046875, 23236.001953125, 33008.47265625, 0.0, 0.0, 0.0, 193.0, 0.0, 1.0, 1.0, 0.0, 0.0, 1.0, 1.0, 256.0, 1.0, 1.606468445546318E9, 2020-11-27 14:59:05.546
51.0, -33427.32421875, 14239.8935546875, -33333.37890625, 35200.17578125, 484.7869567871094, -2656.0576171875, 23179.02734375, 32960.1953125, 0.0, 0.0, 0.0, 193.0, 0.0, 1.0, 1.0, 0.0, 0.0, 1.0, 1.0, 256.0, 1.0, 1.606468445546322E9, 2020-11-27 14:59:05.546
52.0, -33524.26171875, 14136.6728515625, -33432.15234375, 35227.30859375, 434.830810546875, -2733.4169921875, 23100.392578125, 32918.93359375, 0.0, 0.0, 0.0, 193.0, 0.0, 1.0, 1.0, 0.0, 0.0, 1.0, 1.0, 256.0, 1.0, 1.606468445546325E9, 2020-11-27 14:59:05.546
53.0, -33559.98046875, 14114.857421875, -33448.9609375, 35196.8671875, 427.4324035644531, -2739.407470703125, 23074.599609375, 32933.86328125, 0.0, 0.0, 0.0, 193.0, 0.0, 1.0, 1.0, 0.0, 0.0, 1.0, 1.0, 256.0, 1.0, 1.606468445546329E9, 2020-11-27 14:59:05.546
54.0, -33373.30078125, 14306.8818359375, -33267.59765625, 35241.34765625, 523.83544921875, -2631.739013671875, 23210.095703125, 33022.84765625, 0.0, 0.0, 0.0, 193.0, 0.0, 1.0, 1.0, 0.0, 0.0, 1.0, 1.0, 256.0, 1.0, 1.606468445546333E9, 2020-11-27 14:59:05.546
55.0, -33347.55078125, 14316.1357421875, -33261.1171875, 35254.9375, 529.781005859375, -2629.816650390625, 23222.5234375, 32999.3984375, 0.0, 0.0, 0.0, 193.0, 0.0, 1.0, 1.0, 0.0, 0.0, 1.0, 1.0, 256.0, 1.0, 1.606468445546337E9, 2020-11-27 14:59:05.546
56.0, -33423.8125, 14232.875, -33344.6875, 35227.9140625, 498.46624755859375, -2675.011962890625, 23155.66796875, 32956.39453125, 0.0, 0.0, 0.0, 193.0, 0.0, 1.0, 1.0, 0.0, 0.0, 1.0, 1.0, 256.0, 1.0, 1.606468445546341E9, 2020-11-27 14:59:05.546
57.0, -33521.7578125, 14129.6103515625, -33445.16015625, 35187.58984375, 436.0154724121094, -2728.968994140625, 23091.474609375, 32915.82421875, 0.0, 0.0, 0.0, 193.0, 0.0, 1.0, 1.0, 0.0, 0.0, 1.0, 1.0, 256.0, 1.0, 1.606468445546346E9, 2020-11-27 14:59:05.546
58.0, -33547.7109375, 14103.078125, -33467.84765625, 35170.66796875, 429.734619140625, -2728.812744140625, 23068.294921875, 32926.77734375, 0.0, 0.0, 0.0, 193.0, 0.0, 1.0, 1.0, 0.0, 0.0, 1.0, 1.0, 256.0, 1.0, 1.60646844554635E9, 2020-11-27 14:59:05.546
59.0, -33366.70703125, 14298.0302734375, -33282.55078125, 35266.6484375, 537.537109375, -2638.533935546875, 23203.14453125, 33019.91796875, 0.0, 0.0, 0.0, 193.0, 0.0, 1.0, 1.0, 0.0, 0.0, 1.0, 1.0, 256.0, 1.0, 1.606468445546354E9, 2020-11-27 14:59:05.546
60.0, -33350.25390625, 14313.5205078125, -33265.85546875, 35303.9765625, 538.9229125976562, -2646.6923828125, 23216.17578125, 33004.046875, 0.0, 0.0, 0.0, 193.0, 0.0, 1.0, 1.0, 0.0, 0.0, 1.0, 1.0, 256.0, 1.0, 1.606468445546358E9, 2020-11-27 14:59:05.546
61.0, -33432.64453125, 14226.6162109375, -33343.1015625, 35210.87890625, 489.2126159667969, -2674.18505859375, 23160.5859375, 32957.9375, 0.0, 0.0, 0.0, 193.0, 0.0, 1.0, 1.0, 0.0, 0.0, 1.0, 1.0, 256.0, 1.0, 1.606468445607312E9, 2020-11-27 14:59:05.607
62.0, -33537.94140625, 14125.2958984375, -33437.47265625, 35119.68359375, 431.5898132324219, -2716.005126953125, 23109.244140625, 32923.58203125, 0.0, 0.0, 0.0, 193.0, 0.0, 1.0, 1.0, 0.0, 0.0, 1.0, 1.0, 256.0, 1.0, 1.606468445607329E9, 2020-11-27 14:59:05.607
63.0, -33578.0859375, 14097.22265625, -33472.5390625, 35138.21484375, 433.19915771484375, -2727.51611328125, 23083.673828125, 32930.77734375, 0.0, 0.0, 0.0, 193.0, 0.0, 1.0, 1.0, 0.0, 0.0, 1.0, 1.0, 256.0, 1.0, 1.606468445607333E9, 2020-11-27 14:59:05.607
64.0, -33387.3359375, 14293.1796875, -33287.35546875, 35269.3984375, 541.1133422851562, -2631.761474609375, 23197.376953125, 33022.35546875, 0.0, 0.0, 0.0, 193.0, 0.0, 1.0, 1.0, 0.0, 0.0, 1.0, 1.0, 256.0, 1.0, 1.606468445607336E9, 2020-11-27 14:59:05.607
65.0, -33362.859375, 14306.0546875, -33264.2890625, 35229.69921875, 528.2164306640625, -2627.335693359375, 23215.9296875, 33003.01953125, 0.0, 0.0, 0.0, 193.0, 0.0, 1.0, 1.0, 0.0, 0.0, 1.0, 1.0, 256.0, 1.0, 1.606468445607364E9, 2020-11-27 14:59:05.607
66.0, -33437.515625, 14222.9287109375, -33347.23828125, 35152.140625, 479.0872802734375, -2673.626220703125, 23168.07421875, 32962.36328125, 0.0, 0.0, 0.0, 193.0, 0.0, 1.0, 1.0, 0.0, 0.0, 1.0, 1.0, 256.0, 1.0, 1.606468445607368E9, 2020-11-27 14:59:05.607
67.0, -33527.75, 14127.375, -33453.140625, 35199.6171875, 439.6364440917969, -2743.05078125, 23088.568359375, 32923.06640625, 0.0, 0.0, 0.0, 193.0, 0.0, 1.0, 1.0, 0.0, 0.0, 1.0, 1.0, 256.0, 1.0, 1.606468445607372E9, 2020-11-27 14:59:05.607
68.0, -33569.546875, 14089.66796875, -33488.3671875, 35240.765625, 411.2720947265625, -2765.648193359375, 23056.494140625, 32930.2421875, 0.0, 0.0, 0.0, 193.0, 0.0, 1.0, 1.0, 0.0, 0.0, 1.0, 1.0, 256.0, 1.0, 1.606468445607376E9, 2020-11-27 14:59:05.607
69.0, -33399.0703125, 14279.58984375, -33298.33203125, 35354.4453125, 511.7208251953125, -2673.24609375, 23190.001953125, 33023.8515625, 0.0, 0.0, 0.0, 193.0, 0.0, 1.0, 1.0, 0.0, 0.0, 1.0, 1.0, 256.0, 1.0, 1.60646844560738E9, 2020-11-27 14:59:05.607
70.0, -33376.18359375, 14302.4560546875, -33269.4296875, 35313.4765625, 527.9258422851562, -2654.18017578125, 23218.96875, 33007.265625, 0.0, 0.0, 0.0, 193.0, 0.0, 1.0, 1.0, 0.0, 0.0, 1.0, 1.0, 256.0, 1.0, 1.606468445607429E9, 2020-11-27 14:59:05.607
71.0, -33460.8046875, 14222.705078125, -33347.34765625, 35237.859375, 480.5177917480469, -2687.104248046875, 23164.51953125, 32966.80859375, 0.0, 0.0, 0.0, 193.0, 0.0, 1.0, 1.0, 0.0, 0.0, 1.0, 1.0, 256.0, 1.0, 1.606468445607433E9, 2020-11-27 14:59:05.607
72.0, -33568.96484375, 14121.5859375, -33442.58984375, 35133.9921875, 407.9640197753906, -2730.511474609375, 23099.185546875, 32924.07421875, 0.0, 0.0, 0.0, 193.0, 0.0, 1.0, 1.0, 0.0, 0.0, 1.0, 1.0, 256.0, 1.0, 1.606468445607438E9, 2020-11-27 14:59:05.607
73.0, -33589.57421875, 14081.888671875, -33496.5234375, 35178.6484375, 425.89013671875, -2756.998291015625, 23059.66796875, 32932.34375, 0.0, 0.0, 0.0, 193.0, 0.0, 1.0, 1.0, 0.0, 0.0, 1.0, 1.0, 256.0, 1.0, 1.606468445607442E9, 2020-11-27 14:59:05.607
74.0, -33387.8515625, 14270.962890625, -33318.87109375, 35337.76953125, 555.574951171875, -2664.707763671875, 23178.9375, 33029.75390625, 0.0, 0.0, 0.0, 193.0, 0.0, 1.0, 1.0, 0.0, 0.0, 1.0, 1.0, 256.0, 1.0, 1.606468445607446E9, 2020-11-27 14:59:05.607
75.0, -33363.80078125, 14292.21875, -33287.625, 35278.046875, 536.0171508789062, -2654.96240234375, 23216.0859375, 33014.0390625, 0.0, 0.0, 0.0, 193.0, 0.0, 1.0, 1.0, 0.0, 0.0, 1.0, 1.0, 256.0, 1.0, 1.60646844560745E9, 2020-11-27 14:59:05.607
76.0, -33461.8125, 14209.875, -33354.0546875, 35091.6796875, 485.4798583984375, -2675.704833984375, 23175.517578125, 32978.61328125, 0.0, 0.0, 0.0, 193.0, 0.0, 1.0, 1.0, 0.0, 0.0, 1.0, 1.0, 256.0, 1.0, 1.606468445665006E9, 2020-11-27 14:59:05.665
77.0, -33553.05078125, 14115.8193359375, -33459.12890625, 35199.234375, 421.3974304199219, -2747.677490234375, 23091.8984375, 32929.1015625, 0.0, 0.0, 0.0, 193.0, 0.0, 1.0, 1.0, 0.0, 0.0, 1.0, 1.0, 256.0, 1.0, 1.606468445665023E9, 2020-11-27 14:59:05.665
78.0, -33583.875, 14071.4951171875, -33510.0703125, 35305.3828125, 419.00579833984375, -2773.448974609375, 23039.1484375, 32925.28125, 0.0, 0.0, 0.0, 193.0, 0.0, 1.0, 1.0, 0.0, 0.0, 1.0, 1.0, 256.0, 1.0, 1.606468445665027E9, 2020-11-27 14:59:05.665
79.0, -33408.5234375, 14262.3349609375, -33320.97265625, 35374.78515625, 520.2815551757812, -2687.037109375, 23172.4765625, 33024.41015625, 0.0, 0.0, 0.0, 193.0, 0.0, 1.0, 1.0, 0.0, 0.0, 1.0, 1.0, 256.0, 1.0, 1.606468445665031E9, 2020-11-27 14:59:05.665
80.0, -33363.80078125, 14300.35546875, -33282.125, 35419.33203125, 520.3262329101562, -2670.429931640625, 23215.66015625, 33015.40234375, 0.0, 0.0, 0.0, 193.0, 0.0, 1.0, 1.0, 0.0, 0.0, 1.0, 1.0, 256.0, 1.0, 1.606468445665035E9, 2020-11-27 14:59:05.665
81.0, -33437.1796875, 14215.3515625, -33365.5, 35359.69921875, 482.57415771484375, -2712.853515625, 23157.724609375, 32971.2578125, 0.0, 0.0, 0.0, 193.0, 0.0, 1.0, 1.0, 0.0, 0.0, 1.0, 1.0, 256.0, 1.0, 1.606468445665038E9, 2020-11-27 14:59:05.665
82.0, -33546.30078125, 14109.671875, -33467.82421875, 35248.36328125, 433.3779602050781, -2769.2021484375, 23075.73828125, 32929.34765625, 0.0, 0.0, 0.0, 193.0, 0.0, 1.0, 1.0, 0.0, 0.0, 1.0, 1.0, 256.0, 1.0, 1.606468445665042E9, 2020-11-27 14:59:05.665
83.0, -33611.79296875, 14069.751953125, -33500.3671875, 35141.9921875, 402.3537292480469, -2766.676513671875, 23051.80078125, 32932.58984375, 0.0, 0.0, 0.0, 193.0, 0.0, 1.0, 1.0, 0.0, 0.0, 1.0, 1.0, 256.0, 1.0, 1.606468445665046E9, 2020-11-27 14:59:05.665
84.0, -33440.2890625, 14250.533203125, -33322.2265625, 35177.3984375, 520.594482421875, -2658.002197265625, 23202.5625, 33026.4453125, 0.0, 0.0, 0.0, 193.0, 0.0, 1.0, 1.0, 0.0, 0.0, 1.0, 1.0, 256.0, 1.0, 1.606468445665049E9, 2020-11-27 14:59:05.665
85.0, -33395.11328125, 14283.9931640625, -33288.33984375, 35341.75, 548.3329467773438, -2651.341552734375, 23227.060546875, 33014.015625, 0.0, 0.0, 0.0, 193.0, 0.0, 1.0, 1.0, 0.0, 0.0, 1.0, 1.0, 256.0, 1.0, 1.606468445665053E9, 2020-11-27 14:59:05.665
86.0, -33467.9140625, 14200.8671875, -33376.78515625, 35411.6875, 460.11065673828125, -2703.801025390625, 23146.03515625, 32964.8671875, 0.0, 0.0, 0.0, 193.0, 0.0, 1.0, 1.0, 0.0, 0.0, 1.0, 1.0, 256.0, 1.0, 1.606468445665057E9, 2020-11-27 14:59:05.665
87.0, -33555.0859375, 14104.53125, -33475.1796875, 35388.1953125, 415.83184814453125, -2778.455810546875, 23077.83984375, 32923.984375, 0.0, 0.0, 0.0, 193.0, 0.0, 1.0, 1.0, 0.0, 0.0, 1.0, 1.0, 256.0, 1.0, 1.606468445665061E9, 2020-11-27 14:59:05.665
88.0, -33595.8984375, 14065.9521484375, -33522.25, 35283.5234375, 402.3537292480469, -2794.12451171875, 23047.955078125, 32928.34375, 0.0, 0.0, 0.0, 193.0, 0.0, 1.0, 1.0, 0.0, 0.0, 1.0, 1.0, 256.0, 1.0, 1.606468445665065E9, 2020-11-27 14:59:05.665
89.0, -33419.25390625, 14257.4619140625, -33336.30859375, 35347.0234375, 498.9579772949219, -2698.14599609375, 23150.68359375, 33023.16015625, 0.0, 0.0, 0.0, 193.0, 0.0, 1.0, 1.0, 0.0, 0.0, 1.0, 1.0, 256.0, 1.0, 1.606468445665069E9, 2020-11-27 14:59:05.665
90.0, -33372.80859375, 14302.27734375, -33286.6875, 35343.08984375, 517.2640380859375, -2672.419189453125, 23202.294921875, 32999.01953125, 0.0, 0.0, 0.0, 193.0, 0.0, 1.0, 1.0, 0.0, 0.0, 1.0, 1.0, 256.0, 1.0, 1.606468445665072E9, 2020-11-27 14:59:05.665
91.0, -33445.13671875, 14250.443359375, -33333.3359375, 35211.52734375, 445.8949279785156, -2707.198486328125, 23155.021484375, 32953.265625, 0.0, 0.0, 0.0, 193.0, 0.0, 1.0, 1.0, 0.0, 0.0, 1.0, 1.0, 256.0, 1.0, 1.606468445726094E9, 2020-11-27 14:59:05.726
92.0, -33527.4140625, 14158.7568359375, -33435.4140625, 35207.86328125, 355.6385803222656, -2791.5986328125, 23076.767578125, 32914.640625, 0.0, 0.0, 0.0, 193.0, 0.0, 1.0, 1.0, 0.0, 0.0, 1.0, 1.0, 256.0, 1.0, 1.60646844572611E9, 2020-11-27 14:59:05.726
93.0, -33566.796875, 14094.2275390625, -33522.33984375, 35386.85546875, 363.2605285644531, -2850.3837890625, 22980.9453125, 32901.41015625, 0.0, 0.0, 0.0, 193.0, 0.0, 1.0, 1.0, 0.0, 0.0, 1.0, 1.0, 256.0, 1.0, 1.606468445726115E9, 2020-11-27 14:59:05.726
94.0, -33410.53515625, 14273.3984375, -33345.6484375, 35507.109375, 479.40020751953125, -2749.041015625, 23141.921875, 32984.4453125, 0.0, 0.0, 0.0, 193.0, 0.0, 1.0, 1.0, 0.0, 0.0, 1.0, 1.0, 256.0, 1.0, 1.606468445726175E9, 2020-11-27 14:59:05.726
95.0, -33362.5703125, 14337.2353515625, -33267.484375, 35367.9921875, 498.7344665527344, -2685.986572265625, 23191.56640625, 32998.86328125, 0.0, 0.0, 0.0, 193.0, 0.0, 1.0, 1.0, 0.0, 0.0, 1.0, 1.0, 256.0, 1.0, 1.606468445726179E9, 2020-11-27 14:59:05.726
96.0, -33449.65234375, 14254.1982421875, -33362.0546875, 35302.5234375, 417.77642822265625, -2763.32373046875, 23107.1875, 32953.109375, 0.0, 0.0, 0.0, 193.0, 0.0, 1.0, 1.0, 0.0, 0.0, 1.0, 1.0, 256.0, 1.0, 1.606468445726184E9, 2020-11-27 14:59:05.726
97.0, -33553.34375, 14136.830078125, -33473.43359375, 35399.05859375, 372.4694519042969, -2839.923095703125, 23046.078125, 32913.234375, 0.0, 0.0, 0.0, 193.0, 0.0, 1.0, 1.0, 0.0, 0.0, 1.0, 1.0, 256.0, 1.0, 1.606468445726199E9, 2020-11-27 14:59:05.726
98.0, -33613.6484375, 14079.654296875, -33524.12890625, 35283.92578125, 351.5482177734375, -2849.713134765625, 23004.482421875, 32911.3984375, 0.0, 0.0, 0.0, 193.0, 0.0, 1.0, 1.0, 0.0, 0.0, 1.0, 1.0, 256.0, 1.0, 1.606468445726204E9, 2020-11-27 14:59:05.726
99.0, -33429.1796875, 14265.240234375, -33344.8671875, 35220.4921875, 472.717041015625, -2749.063232421875, 23130.568359375, 33011.08984375, 0.0, 0.0, 0.0, 193.0, 0.0, 1.0, 1.0, 0.0, 0.0, 1.0, 1.0, 256.0, 1.0, 1.606468445726208E9, 2020-11-27 14:59:05.726
100.0, -33388.6328125, 14288.8212890625, -33326.31640625, 35084.81640625, 490.7548828125, -2738.55810546875, 23165.2578125, 33003.3125, 0.0, 0.0, 0.0, 193.0, 0.0, 1.0, 1.0, 0.0, 0.0, 1.0, 1.0, 256.0, 1.0, 1.606468445726213E9, 2020-11-27 14:59:05.726
101.0, -33497.75390625, 14203.6611328125, -33410.37890625, 35228.2265625, 417.35174560546875, -2798.237060546875, 23125.427734375, 32955.34375, 0.0, 0.0, 0.0, 193.0, 0.0, 1.0, 1.0, 0.0, 0.0, 1.0, 1.0, 256.0, 1.0, 1.606468445726217E9, 2020-11-27 14:59:05.726
102.0, -33588.65625, 14125.5869140625, -33486.0859375, 35178.984375, 371.1954040527344, -2828.07666015625, 23048.357421875, 32923.71484375, 0.0, 0.0, 0.0, 193.0, 0.0, 1.0, 1.0, 0.0, 0.0, 1.0, 1.0, 256.0, 1.0, 1.606468445726222E9, 2020-11-27 14:59:05.726
103.0, -33636.89453125, 14070.8251953125, -33542.27734375, 35029.3828125, 350.9447326660156, -2855.3681640625, 22990.130859375, 32922.0390625, 0.0, 0.0, 0.0, 193.0, 0.0, 1.0, 1.0, 0.0, 0.0, 1.0, 1.0, 256.0, 1.0, 1.606468445726227E9, 2020-11-27 14:59:05.726
104.0, -33456.89453125, 14246.263671875, -33372.8515625, 35216.3359375, 465.02801513671875, -2775.2373046875, 23132.78125, 33022.265625, 0.0, 0.0, 0.0, 193.0, 0.0, 1.0, 1.0, 0.0, 0.0, 1.0, 1.0, 256.0, 1.0, 1.606468445726231E9, 2020-11-27 14:59:05.726
105.0, -33408.390625, 14283.970703125, -33335.97265625, 35310.4140625, 482.5294494628906, -2766.31884765625, 23165.75, 33013.390625, 0.0, 0.0, 0.0, 193.0, 0.0, 1.0, 1.0, 0.0, 0.0, 1.0, 1.0, 256.0, 1.0, 1.606468445726236E9, 2020-11-27 14:59:05.726
106.0, -33518.00390625, 14196.9111328125, -33424.41796875, 35222.703125, 419.89984130859375, -2815.962158203125, 23107.076171875, 32965.55859375, 0.0, 0.0, 0.0, 193.0, 0.0, 1.0, 1.0, 0.0, 0.0, 1.0, 1.0, 256.0, 1.0, 1.60646844578603E9, 2020-11-27 14:59:05.786
107.0, -33621.8515625, 14109.203125, -33502.3359375, 35088.953125, 378.0574035644531, -2853.423583984375, 23048.1796875, 32937.55078125, 0.0, 0.0, 0.0, 193.0, 0.0, 1.0, 1.0, 0.0, 0.0, 1.0, 1.0, 256.0, 1.0, 1.606468445786047E9, 2020-11-27 14:59:05.786
108.0, -33678.87109375, 14038.8623046875, -33574.28515625, 35003.8828125, 346.4296875, -2866.87939453125, 23004.7265625, 32931.0234375, 0.0, 0.0, 0.0, 193.0, 0.0, 1.0, 1.0, 0.0, 0.0, 1.0, 1.0, 256.0, 1.0, 1.606468445786051E9, 2020-11-27 14:59:05.786
109.0, -33519.27734375, 14217.36328125, -33398.37890625, 35112.04296875, 456.623779296875, -2759.14404296875, 23118.341796875, 33016.18359375, 0.0, 0.0, 0.0, 193.0, 0.0, 1.0, 1.0, 0.0, 0.0, 1.0, 1.0, 256.0, 1.0, 1.606468445786056E9, 2020-11-27 14:59:05.786
110.0, -33458.30078125, 14279.7021484375, -33332.1953125, 35190.7421875, 461.3399963378906, -2756.372314453125, 23179.7421875, 33016.96875, 0.0, 0.0, 0.0, 193.0, 0.0, 1.0, 1.0, 0.0, 0.0, 1.0, 1.0, 256.0, 1.0, 1.60646844578606E9, 2020-11-27 14:59:05.786
111.0, -33537.02734375, 14182.4267578125, -33423.63671875, 35163.91796875, 427.3876953125, -2793.677490234375, 23114.005859375, 32965.78125, 0.0, 0.0, 0.0, 193.0, 0.0, 1.0, 1.0, 0.0, 0.0, 1.0, 1.0, 256.0, 1.0, 1.606468445786064E9, 2020-11-27 14:59:05.786
112.0, -33636.22265625, 14091.5673828125, -33516.484375, 35093.734375, 395.7599792480469, -2836.1904296875, 23061.9921875, 32926.421875, 0.0, 0.0, 0.0, 193.0, 0.0, 1.0, 1.0, 0.0, 0.0, 1.0, 1.0, 256.0, 1.0, 1.606468445786068E9, 2020-11-27 14:59:05.786
113.0, -33700.75390625, 14064.455078125, -33563.01953125, 35051.6015625, 350.0506591796875, -2873.07080078125, 23006.515625, 32928.34375, 0.0, 0.0, 0.0, 193.0, 0.0, 1.0, 1.0, 0.0, 0.0, 1.0, 1.0, 256.0, 1.0, 1.606468445786073E9, 2020-11-27 14:59:05.786
114.0, -33541.83203125, 14224.8056640625, -33391.91796875, 35103.92578125, 441.08929443359375, -2772.30908203125, 23129.517578125, 33031.98828125, 0.0, 0.0, 0.0, 193.0, 0.0, 1.0, 1.0, 0.0, 0.0, 1.0, 1.0, 256.0, 1.0, 1.606468445786077E9, 2020-11-27 14:59:05.786
115.0, -33443.328125, 14270.26953125, -33346.12109375, 35210.3203125, 498.2427062988281, -2755.299560546875, 23183.787109375, 33024.38671875, 0.0, 0.0, 0.0, 193.0, 0.0, 1.0, 1.0, 0.0, 0.0, 1.0, 1.0, 256.0, 1.0, 1.606468445786081E9, 2020-11-27 14:59:05.786
116.0, -33513.84765625, 14148.966796875, -33436.93359375, 35070.01953125, 442.4974670410156, -2774.09716796875, 23124.80078125, 32975.59375, 0.0, 0.0, 0.0, 193.0, 0.0, 1.0, 1.0, 0.0, 0.0, 1.0, 1.0, 256.0, 1.0, 1.606468445786085E9, 2020-11-27 14:59:05.786
117.0, -33636.6015625, 14058.330078125, -33536.78125, 35034.3671875, 384.1370544433594, -2837.48681640625, 23071.0, 32941.30859375, 0.0, 0.0, 0.0, 193.0, 0.0, 1.0, 1.0, 0.0, 0.0, 1.0, 1.0, 256.0, 1.0, 1.606468445786148E9, 2020-11-27 14:59:05.786
118.0, -33711.5703125, 14024.6240234375, -33595.765625, 35166.7578125, 366.45684814453125, -2884.492431640625, 23014.048828125, 32923.6953125, 0.0, 0.0, 0.0, 193.0, 0.0, 1.0, 1.0, 0.0, 0.0, 1.0, 1.0, 256.0, 1.0, 1.606468445786152E9, 2020-11-27 14:59:05.786
119.0, -33549.609375, 14189.3564453125, -33427.61328125, 35190.33984375, 451.527587890625, -2780.53466796875, 23134.970703125, 33016.07421875, 0.0, 0.0, 0.0, 193.0, 0.0, 1.0, 1.0, 0.0, 0.0, 1.0, 1.0, 256.0, 1.0, 1.606468445786168E9, 2020-11-27 14:59:05.786
120.0, -33468.31640625, 14242.396484375, -33364.94140625, 35255.875, 493.2582702636719, -2749.041015625, 23156.763671875, 33021.01171875, 0.0, 0.0, 0.0, 193.0, 0.0, 1.0, 1.0, 0.0, 0.0, 1.0, 1.0, 256.0, 1.0, 1.606468445786174E9, 2020-11-27 14:59:05.786
121.0, -33538.43359375, 14151.9619140625, -33444.82421875, 35294.87890625, 449.1806335449219, -2785.630859375, 23131.193359375, 32976.3984375, 0.0, 0.0, 0.0, 193.0, 0.0, 1.0, 1.0, 0.0, 0.0, 1.0, 1.0, 256.0, 1.0, 1.606468445846109E9, 2020-11-27 14:59:05.846
122.0, -33624.6875, 14062.5546875, -33535.86328125, 35193.46875, 395.08941650390625, -2833.329345703125, 23069.994140625, 32940.79296875, 0.0, 0.0, 0.0, 193.0, 0.0, 1.0, 1.0, 0.0, 0.0, 1.0, 1.0, 256.0, 1.0, 1.606468445846128E9, 2020-11-27 14:59:05.846
123.0, -33689.8671875, 13996.9521484375, -33599.23046875, 35144.13671875, 377.6550598144531, -2856.552734375, 23013.712890625, 32934.9140625, 0.0, 0.0, 0.0, 193.0, 0.0, 1.0, 1.0, 0.0, 0.0, 1.0, 1.0, 256.0, 1.0, 1.606468445846132E9, 2020-11-27 14:59:05.846
124.0, -33519.16796875, 14205.896484375, -33395.31640625, 35148.69921875, 477.32147216796875, -2742.0224609375, 23156.09375, 33041.44140625, 0.0, 0.0, 0.0, 193.0, 0.0, 1.0, 1.0, 0.0, 0.0, 1.0, 1.0, 256.0, 1.0, 1.606468445846136E9, 2020-11-27 14:59:05.846
125.0, -33451.1953125, 14269.9345703125, -33331.61328125, 35079.453125, 501.3272705078125, -2732.634765625, 23226.45703125, 33043.0078125, 0.0, 0.0, 0.0, 193.0, 0.0, 1.0, 1.0, 0.0, 0.0, 1.0, 1.0, 256.0, 1.0, 1.60646844584614E9, 2020-11-27 14:59:05.846
126.0, -33537.359375, 14141.0537109375, -33443.73046875, 35144.33984375, 484.3399353027344, -2750.13623046875, 23156.541015625, 32988.4453125, 0.0, 0.0, 0.0, 193.0, 0.0, 1.0, 1.0, 0.0, 0.0, 1.0, 1.0, 256.0, 1.0, 1.606468445846144E9, 2020-11-27 14:59:05.846
127.0, -33618.49609375, 14060.38671875, -33529.8515625, 35275.9921875, 421.9114990234375, -2825.998046875, 23074.912109375, 32954.31640625, 0.0, 0.0, 0.0, 193.0, 0.0, 1.0, 1.0, 0.0, 0.0, 1.0, 1.0, 256.0, 1.0, 1.606468445846147E9, 2020-11-27 14:59:05.846
128.0, -33681.55078125, 13970.1298828125, -33621.984375, 35250.2421875, 400.38677978515625, -2857.804443359375, 23026.833984375, 32943.54296875, 0.0, 0.0, 0.0, 193.0, 0.0, 1.0, 1.0, 0.0, 0.0, 1.0, 1.0, 256.0, 1.0, 1.606468445846151E9, 2020-11-27 14:59:05.846
129.0, -33518.40625, 14157.68359375, -33445.62890625, 35320.42578125, 521.64501953125, -2739.273193359375, 23160.853515625, 33037.80078125, 0.0, 0.0, 0.0, 193.0, 0.0, 1.0, 1.0, 0.0, 0.0, 1.0, 1.0, 256.0, 1.0, 1.606468445846155E9, 2020-11-27 14:59:05.846
130.0, -33442.3203125, 14224.8955078125, -33372.875, 35335.9375, 511.2737731933594, -2714.32861328125, 23206.564453125, 33043.140625, 0.0, 0.0, 0.0, 193.0, 0.0, 1.0, 1.0, 0.0, 0.0, 1.0, 1.0, 256.0, 1.0, 1.606468445846158E9, 2020-11-27 14:59:05.846
131.0, -33520.55078125, 14137.857421875, -33449.7421875, 35234.08203125, 455.88616943359375, -2764.173095703125, 23151.466796875, 32991.9765625, 0.0, 0.0, 0.0, 193.0, 0.0, 1.0, 1.0, 0.0, 0.0, 1.0, 1.0, 256.0, 1.0, 1.606468445846162E9, 2020-11-27 14:59:05.846
132.0, -33628.9140625, 14033.408203125, -33547.0390625, 35171.65234375, 420.7715759277344, -2808.47412109375, 23079.650390625, 32948.3046875, 0.0, 0.0, 0.0, 193.0, 0.0, 1.0, 1.0, 0.0, 0.0, 1.0, 1.0, 256.0, 1.0, 1.606468445846166E9, 2020-11-27 14:59:05.846
133.0, -33706.20703125, 13948.8515625, -33623.59375, 35177.12890625, 406.5782165527344, -2819.203125, 23038.90234375, 32942.7578125, 0.0, 0.0, 0.0, 193.0, 0.0, 1.0, 1.0, 0.0, 0.0, 1.0, 1.0, 256.0, 1.0, 1.60646844584617E9, 2020-11-27 14:59:05.846
134.0, -33505.77734375, 14134.0576171875, -33462.2578125, 35281.9140625, 517.9346313476562, -2746.179931640625, 23146.9296875, 33039.296875, 0.0, 0.0, 0.0, 193.0, 0.0, 1.0, 1.0, 0.0, 0.0, 1.0, 1.0, 256.0, 1.0, 1.606468445846174E9, 2020-11-27 14:59:05.846
135.0, -33436.95703125, 14198.9677734375, -33392.41015625, 35350.51171875, 546.1871948242188, -2716.74267578125, 23207.5703125, 33047.3203125, 0.0, 0.0, 0.0, 193.0, 0.0, 1.0, 1.0, 0.0, 0.0, 1.0, 1.0, 256.0, 1.0, 1.606468445846178E9, 2020-11-27 14:59:05.846
136.0, -33526.65625, 14102.4970703125, -33477.4375, 35308.46875, 491.93951416015625, -2753.220703125, 23159.111328125, 32996.71875, 0.0, 0.0, 0.0, 193.0, 0.0, 1.0, 1.0, 0.0, 0.0, 1.0, 1.0, 256.0, 1.0, 1.606468445905567E9, 2020-11-27 14:59:05.905
137.0, -33626.140625, 14010.1845703125, -33571.55859375, 35254.04296875, 440.41876220703125, -2804.87548828125, 23098.693359375, 32956.5078125, 0.0, 0.0, 0.0, 193.0, 0.0, 1.0, 1.0, 0.0, 0.0, 1.0, 1.0, 256.0, 1.0, 1.60646844590559E9, 2020-11-27 14:59:05.905
138.0, -33715.52734375, 13943.3310546875, -33635.73046875, 35216.4921875, 408.63458251953125, -2836.68212890625, 23051.375, 32944.2578125, 0.0, 0.0, 0.0, 193.0, 0.0, 1.0, 1.0, 0.0, 0.0, 1.0, 1.0, 256.0, 1.0, 1.606468445905594E9, 2020-11-27 14:59:05.905
139.0, -33533.58203125, 14114.3212890625, -33472.36328125, 35298.9453125, 505.88702392578125, -2749.6220703125, 23155.466796875, 33035.18359375, 0.0, 0.0, 0.0, 193.0, 0.0, 1.0, 1.0, 0.0, 0.0, 1.0, 1.0, 256.0, 1.0, 1.606468445905598E9, 2020-11-27 14:59:05.905
140.0, -33450.48046875, 14183.4111328125, -33399.40625, 35333.32421875, 515.4535522460938, -2723.515380859375, 23204.88671875, 33038.06640625, 0.0, 0.0, 0.0, 193.0, 0.0, 1.0, 1.0, 0.0, 0.0, 1.0, 1.0, 256.0, 1.0, 1.60646844590565E9, 2020-11-27 14:59:05.905
141.0, -33551.48828125, 14086.001953125, -33484.34375, 35301.13671875, 484.09405517578125, -2762.13916015625, 23161.97265625, 32988.6484375, 0.0, 0.0, 0.0, 193.0, 0.0, 1.0, 1.0, 0.0, 0.0, 1.0, 1.0, 256.0, 1.0, 1.606468445905654E9, 2020-11-27 14:59:05.905
142.0, -33627.88671875, 14016.0634765625, -33552.11328125, 35279.90234375, 459.0154113769531, -2785.11669921875, 23115.30078125, 32961.69140625, 0.0, 0.0, 0.0, 193.0, 0.0, 1.0, 1.0, 0.0, 0.0, 1.0, 1.0, 256.0, 1.0, 1.606468445905659E9, 2020-11-27 14:59:05.905
143.0, -33680.12109375, 13943.2412109375, -33630.6796875, 35257.52734375, 427.92413330078125, -2819.60546875, 23044.625, 32949.84375, 0.0, 0.0, 0.0, 193.0, 0.0, 1.0, 1.0, 0.0, 0.0, 1.0, 1.0, 256.0, 1.0, 1.606468445905663E9, 2020-11-27 14:59:05.905
144.0, -33494.24609375, 14106.6103515625, -33482.0625, 35347.25, 526.0259399414062, -2740.63671875, 23143.5546875, 33034.37890625, 0.0, 0.0, 0.0, 193.0, 0.0, 1.0, 1.0, 0.0, 0.0, 1.0, 1.0, 256.0, 1.0, 1.606468445905667E9, 2020-11-27 14:59:05.905
145.0, -33398.51171875, 14198.7216796875, -33392.41015625, 35393.71875, 559.6429443359375, -2699.95654296875, 23220.287109375, 33051.8828125, 0.0, 0.0, 0.0, 193.0, 0.0, 1.0, 1.0, 0.0, 0.0, 1.0, 1.0, 256.0, 1.0, 1.606468445905671E9, 2020-11-27 14:59:05.905
146.0, -33515.30078125, 14092.640625, -33480.5859375, 35363.09765625, 497.7509765625, -2748.459716796875, 23167.4921875, 32993.36328125, 0.0, 0.0, 0.0, 193.0, 0.0, 1.0, 1.0, 0.0, 0.0, 1.0, 1.0, 256.0, 1.0, 1.606468445905675E9, 2020-11-27 14:59:05.905
147.0, -33608.796875, 13986.8271484375, -33580.5, 35334.15234375, 453.025146484375, -2793.275146484375, 23104.572265625, 32948.16796875, 0.0, 0.0, 0.0, 193.0, 0.0, 1.0, 1.0, 0.0, 0.0, 1.0, 1.0, 256.0, 1.0, 1.60646844590568E9, 2020-11-27 14:59:05.905
148.0, -33680.8125, 13915.9501953125, -33651.69140625, 35294.296875, 428.4605712890625, -2820.365478515625, 23041.33984375, 32945.10546875, 0.0, 0.0, 0.0, 193.0, 0.0, 1.0, 1.0, 0.0, 0.0, 1.0, 1.0, 256.0, 1.0, 1.606468445905684E9, 2020-11-27 14:59:05.905
149.0, -33539.0390625, 14095.76953125, -33479.046875, 35417.9921875, 524.193115234375, -2719.603759765625, 23165.548828125, 33036.50390625, 0.0, 0.0, 0.0, 193.0, 0.0, 1.0, 1.0, 0.0, 0.0, 1.0, 1.0, 256.0, 1.0, 1.606468445905688E9, 2020-11-27 14:59:05.905
150.0, -33439.4140625, 14196.77734375, -33388.33984375, 35484.48828125, 557.7430419921875, -2690.8369140625, 23223.3046875, 33043.54296875, 0.0, 0.0, 0.0, 193.0, 0.0, 1.0, 1.0, 0.0, 0.0, 1.0, 1.0, 256.0, 1.0, 1.606468445905692E9, 2020-11-27 14:59:05.905
151.0, -33493.5078125, 14132.6943359375, -33465.140625, 35425.58984375, 508.3009948730469, -2748.50439453125, 23164.185546875, 32992.984375, 0.0, 0.0, 0.0, 193.0, 0.0, 1.0, 1.0, 0.0, 0.0, 1.0, 1.0, 256.0, 1.0, 1.606468445965107E9, 2020-11-27 14:59:05.965
152.0, -33589.39453125, 14009.89453125, -33575.203125, 35412.55859375, 464.5362854003906, -2793.2080078125, 23098.873046875, 32962.7421875, 0.0, 0.0, 0.0, 193.0, 0.0, 1.0, 1.0, 0.0, 0.0, 1.0, 1.0, 256.0, 1.0, 1.606468445965128E9, 2020-11-27 14:59:05.965
153.0, -33641.20703125, 13923.3037109375, -33645.96875, 35363.90234375, 442.7209777832031, -2815.962158203125, 23054.83984375, 32955.14453125, 0.0, 0.0, 0.0, 193.0, 0.0, 1.0, 1.0, 0.0, 0.0, 1.0, 1.0, 256.0, 1.0, 1.606468445965132E9, 2020-11-27 14:59:05.965
154.0, -33446.30078125, 14099.748046875, -33478.46484375, 35452.90625, 541.1357421875, -2722.866943359375, 23164.185546875, 33041.53125, 0.0, 0.0, 0.0, 193.0, 0.0, 1.0, 1.0, 0.0, 0.0, 1.0, 1.0, 256.0, 1.0, 1.606468445965135E9, 2020-11-27 14:59:05.965
155.0, -33434.296875, 14204.33203125, -33384.07421875, 35536.09765625, 574.1939697265625, -2683.4609375, 23231.59765625, 33054.7421875, 0.0, 0.0, 0.0, 193.0, 0.0, 1.0, 1.0, 0.0, 0.0, 1.0, 1.0, 256.0, 1.0, 1.606468445965155E9, 2020-11-27 14:59:05.965
156.0, -33541.78515625, 14128.5595703125, -33457.07421875, 35502.75, 515.9005737304688, -2723.4482421875, 23175.896484375, 32998.90625, 0.0, 0.0, 0.0, 193.0, 0.0, 1.0, 1.0, 0.0, 0.0, 1.0, 1.0, 256.0, 1.0, 1.606468445965159E9, 2020-11-27 14:59:05.965
157.0, -33601.734375, 14002.3388671875, -33582.35546875, 35464.796875, 458.76953125, -2781.652099609375, 23093.666015625, 32949.12890625, 0.0, 0.0, 0.0, 193.0, 0.0, 1.0, 1.0, 0.0, 0.0, 1.0, 1.0, 256.0, 1.0, 1.606468445965163E9, 2020-11-27 14:59:05.965
158.0, -33619.4375, 13925.6728515625, -33661.8359375, 35403.44140625, 440.21759033203125, -2819.31494140625, 23039.349609375, 32940.76953125, 0.0, 0.0, 0.0, 193.0, 0.0, 1.0, 1.0, 0.0, 0.0, 1.0, 1.0, 256.0, 1.0, 1.606468445965167E9, 2020-11-27 14:59:05.965
159.0, -33465.1875, 14092.751953125, -33497.9765625, 35497.49609375, 531.5468139648438, -2731.91943359375, 23144.068359375, 33029.328125, 0.0, 0.0, 0.0, 193.0, 0.0, 1.0, 1.0, 0.0, 0.0, 1.0, 1.0, 256.0, 1.0, 1.606468445965172E9, 2020-11-27 14:59:05.965
160.0, -33427.7265625, 14164.2998046875, -33418.31640625, 35597.765625, 561.8557739257812, -2682.924560546875, 23215.013671875, 33042.6953125, 0.0, 0.0, 0.0, 193.0, 0.0, 1.0, 1.0, 0.0, 0.0, 1.0, 1.0, 256.0, 1.0, 1.606468445965176E9, 2020-11-27 14:59:05.965
161.0, -33504.21484375, 14071.6748046875, -33496.1875, 35605.45703125, 524.5507202148438, -2707.2431640625, 23174.35546875, 32994.28125, 0.0, 0.0, 0.0, 193.0, 0.0, 1.0, 1.0, 0.0, 0.0, 1.0, 1.0, 256.0, 1.0, 1.606468445965179E9, 2020-11-27 14:59:05.965
162.0, -33563.734375, 14000.8642578125, -33575.60546875, 35515.37890625, 474.4381103515625, -2772.71142578125, 23103.677734375, 32954.47265625, 0.0, 0.0, 0.0, 193.0, 0.0, 1.0, 1.0, 0.0, 0.0, 1.0, 1.0, 256.0, 1.0, 1.606468445965184E9, 2020-11-27 14:59:05.965
163.0, -33638.45703125, 13940.3134765625, -33641.9453125, 35452.45703125, 438.29534912109375, -2807.31201171875, 23048.08984375, 32943.921875, 0.0, 0.0, 0.0, 193.0, 0.0, 1.0, 1.0, 0.0, 0.0, 1.0, 1.0, 256.0, 1.0, 1.606468445965219E9, 2020-11-27 14:59:05.965
164.0, -33464.26953125, 14095.76953125, -33494.15625, 35562.16015625, 536.575927734375, -2717.100341796875, 23148.78515625, 33034.53515625, 0.0, 0.0, 0.0, 193.0, 0.0, 1.0, 1.0, 0.0, 0.0, 1.0, 1.0, 256.0, 1.0, 1.606468445965223E9, 2020-11-27 14:59:05.965
165.0, -33338.609375, 14181.8017578125, -33407.7421875, 35649.2421875, 576.1832275390625, -2665.020751953125, 23222.3671875, 33047.54296875, 0.0, 0.0, 0.0, 193.0, 0.0, 1.0, 1.0, 0.0, 0.0, 1.0, 1.0, 256.0, 1.0, 1.606468445965227E9, 2020-11-27 14:59:05.965
166.0, -33463.66796875, 14104.9560546875, -33480.38671875, 35627.98828125, 520.3262329101562, -2712.0263671875, 23172.275390625, 33000.65234375, 0.0, 0.0, 0.0, 193.0, 0.0, 1.0, 1.0, 0.0, 0.0, 1.0, 1.0, 256.0, 1.0, 1.606468446027071E9, 2020-11-27 14:59:06.027
167.0, -33612.57421875, 14010.3857421875, -33579.6953125, 35560.0390625, 451.25933837890625, -2786.971923828125, 23087.294921875, 32956.37109375, 0.0, 0.0, 0.0, 193.0, 0.0, 1.0, 1.0, 0.0, 0.0, 1.0, 1.0, 256.0, 1.0, 1.606468446027092E9, 2020-11-27 14:59:06.027
168.0, -33680.92578125, 13937.1396484375, -33647.80078125, 35518.0625, 437.2224426269531, -2809.256591796875, 23036.130859375, 32936.9921875, 0.0, 0.0, 0.0, 193.0, 0.0, 1.0, 1.0, 0.0, 0.0, 1.0, 1.0, 256.0, 1.0, 1.606468446027096E9, 2020-11-27 14:59:06.027
169.0, -33490.421875, 14089.9580078125, -33505.98046875, 35604.8984375, 541.42626953125, -2715.602783203125, 23143.419921875, 33020.27734375, 0.0, 0.0, 0.0, 193.0, 0.0, 1.0, 1.0, 0.0, 0.0, 1.0, 1.0, 256.0, 1.0, 1.6064684460271E9, 2020-11-27 14:59:06.027
170.0, -33386.48828125, 14166.6689453125, -33420.19140625, 35722.19921875, 592.052978515625, -2649.28515625, 23222.857421875, 33037.64453125, 0.0, 0.0, 0.0, 193.0, 0.0, 1.0, 1.0, 0.0, 0.0, 1.0, 1.0, 256.0, 1.0, 1.606468446027104E9, 2020-11-27 14:59:06.027
171.0, -33495.09375, 14086.046875, -33486.77734375, 35700.13671875, 527.188232421875, -2692.35693359375, 23177.529296875, 32998.05859375, 0.0, 0.0, 0.0, 193.0, 0.0, 1.0, 1.0, 0.0, 0.0, 1.0, 1.0, 256.0, 1.0, 1.606468446027108E9, 2020-11-27 14:59:06.027
172.0, -33583.47265625, 14023.1708984375, -33565.25390625, 35626.95703125, 471.6441345214844, -2752.818359375, 23108.640625, 32965.3359375, 0.0, 0.0, 0.0, 193.0, 0.0, 1.0, 1.0, 0.0, 0.0, 1.0, 1.0, 256.0, 1.0, 1.606468446027112E9, 2020-11-27 14:59:06.027
173.0, -33628.15234375, 13952.47265625, -33645.65625, 35555.85546875, 430.5616455078125, -2804.741455078125, 23040.310546875, 32944.859375, 0.0, 0.0, 0.0, 193.0, 0.0, 1.0, 1.0, 0.0, 0.0, 1.0, 1.0, 256.0, 1.0, 1.606468446027116E9, 2020-11-27 14:59:06.027
174.0, -33477.12109375, 14094.16015625, -33499.23046875, 35664.15234375, 524.9083251953125, -2712.272216796875, 23148.76171875, 33036.7265625, 0.0, 0.0, 0.0, 193.0, 0.0, 1.0, 1.0, 0.0, 0.0, 1.0, 1.0, 256.0, 1.0, 1.606468446027121E9, 2020-11-27 14:59:06.027
175.0, -33385.859375, 14177.30859375, -33406.1796875, 35771.5078125, 582.6205444335938, -2644.010009765625, 23238.169921875, 33060.48828125, 0.0, 0.0, 0.0, 193.0, 0.0, 1.0, 1.0, 0.0, 0.0, 1.0, 1.0, 256.0, 1.0, 1.606468446027125E9, 2020-11-27 14:59:06.027
176.0, -33434.98828125, 14091.701171875, -33489.08203125, 35728.43359375, 527.2776489257812, -2694.8603515625, 23186.044921875, 33002.88671875, 0.0, 0.0, 0.0, 193.0, 0.0, 1.0, 1.0, 0.0, 0.0, 1.0, 1.0, 256.0, 1.0, 1.606468446027129E9, 2020-11-27 14:59:06.027
177.0, -33500.03515625, 14033.3408203125, -33563.0859375, 35646.62890625, 473.8793029785156, -2774.276123046875, 23099.900390625, 32966.23046875, 0.0, 0.0, 0.0, 193.0, 0.0, 1.0, 1.0, 0.0, 0.0, 1.0, 1.0, 256.0, 1.0, 1.606468446027133E9, 2020-11-27 14:59:06.027
178.0, -33615.45703125, 13955.9365234375, -33644.4921875, 35601.2109375, 438.72003173828125, -2812.363525390625, 23031.4375, 32935.2734375, 0.0, 0.0, 0.0, 193.0, 0.0, 1.0, 1.0, 0.0, 0.0, 1.0, 1.0, 256.0, 1.0, 1.606468446027139E9, 2020-11-27 14:59:06.027
179.0, -33484.72265625, 14091.8134765625, -33503.2734375, 35719.671875, 529.8034057617188, -2712.808837890625, 23136.22265625, 33014.21875, 0.0, 0.0, 0.0, 193.0, 0.0, 1.0, 1.0, 0.0, 0.0, 1.0, 1.0, 256.0, 1.0, 1.606468446027142E9, 2020-11-27 14:59:06.027
180.0, -33400.703125, 14203.8173828125, -33397.015625, 35790.6640625, 580.4971313476562, -2667.501708984375, 23212.53125, 33035.6328125, 0.0, 0.0, 0.0, 193.0, 0.0, 1.0, 1.0, 0.0, 0.0, 1.0, 1.0, 256.0, 1.0, 1.606468446027147E9, 2020-11-27 14:59:06.027
181.0, -33480.8125, 14107.1015625, -33480.9453125, 35783.53125, 545.8966064453125, -2695.15087890625, 23178.064453125, 32979.125, 0.0, 0.0, 0.0, 193.0, 0.0, 1.0, 1.0, 0.0, 0.0, 1.0, 1.0, 256.0, 1.0, 1.606468446086088E9, 2020-11-27 14:59:06.086
182.0, -33521.4453125, 14032.201171875, -33549.8984375, 35779.21875, 530.0939331054688, -2704.76220703125, 23138.8828125, 32958.02734375, 0.0, 0.0, 0.0, 193.0, 0.0, 1.0, 1.0, 0.0, 0.0, 1.0, 1.0, 256.0, 1.0, 1.606468446086107E9, 2020-11-27 14:59:06.086
183.0, -33580.9921875, 13959.6923828125, -33622.3203125, 35744.640625, 520.1027221679688, -2734.691162109375, 23087.048828125, 32943.20703125, 0.0, 0.0, 0.0, 193.0, 0.0, 1.0, 1.0, 0.0, 0.0, 1.0, 1.0, 256.0, 1.0, 1.606468446086112E9, 2020-11-27 14:59:06.086
184.0, -33452.3359375, 14123.1953125, -33477.859375, 35838.62890625, 612.0131225585938, -2649.17333984375, 23191.521484375, 33038.91796875, 0.0, 0.0, 0.0, 193.0, 0.0, 1.0, 1.0, 0.0, 0.0, 1.0, 1.0, 256.0, 1.0, 1.606468446086116E9, 2020-11-27 14:59:06.086
185.0, -33349.47265625, 14229.142578125, -33369.1640625, 35860.69140625, 649.228759765625, -2622.91015625, 23267.96484375, 33075.125, 0.0, 0.0, 0.0, 193.0, 0.0, 1.0, 1.0, 0.0, 0.0, 1.0, 1.0, 256.0, 1.0, 1.606468446086121E9, 2020-11-27 14:59:06.086
186.0, -33433.46875, 14135.1083984375, -33450.34375, 35812.6328125, 597.5068359375, -2673.35791015625, 23213.626953125, 33025.1484375, 0.0, 0.0, 0.0, 193.0, 0.0, 1.0, 1.0, 0.0, 0.0, 1.0, 1.0, 256.0, 1.0, 1.606468446086125E9, 2020-11-27 14:59:06.086
187.0, -33507.51953125, 14040.716796875, -33546.32421875, 35769.2265625, 531.1221313476562, -2718.15087890625, 23132.556640625, 32987.30859375, 0.0, 0.0, 0.0, 193.0, 0.0, 1.0, 1.0, 0.0, 0.0, 1.0, 1.0, 256.0, 1.0, 1.606468446086161E9, 2020-11-27 14:59:06.086
188.0, -33591.609375, 13942.5263671875, -33651.2890625, 35695.5546875, 464.67041015625, -2789.31884765625, 23045.498046875, 32957.37890625, 0.0, 0.0, 0.0, 193.0, 0.0, 1.0, 1.0, 0.0, 0.0, 1.0, 1.0, 256.0, 1.0, 1.606468446086166E9, 2020-11-27 14:59:06.086
189.0, -33477.16796875, 14088.326171875, -33519.8359375, 35788.8515625, 520.9297485351562, -2720.989501953125, 23130.65625, 33031.05078125, 0.0, 0.0, 0.0, 193.0, 0.0, 1.0, 1.0, 0.0, 0.0, 1.0, 1.0, 256.0, 1.0, 1.60646844608617E9, 2020-11-27 14:59:06.086
190.0, -33406.1796875, 14202.3876953125, -33404.8828125, 35835.54296875, 546.7907104492188, -2687.104248046875, 23204.529296875, 33046.40625, 0.0, 0.0, 0.0, 193.0, 0.0, 1.0, 1.0, 0.0, 0.0, 1.0, 1.0, 256.0, 1.0, 1.606468446086175E9, 2020-11-27 14:59:06.086
191.0, -33492.56640625, 14110.2978515625, -33476.7890625, 35837.78125, 510.8044128417969, -2716.273193359375, 23162.53125, 32988.828125, 0.0, 0.0, 0.0, 193.0, 0.0, 1.0, 1.0, 0.0, 0.0, 1.0, 1.0, 256.0, 1.0, 1.606468446086179E9, 2020-11-27 14:59:06.086
192.0, -33527.99609375, 14031.955078125, -33569.0546875, 35775.62109375, 473.5440368652344, -2767.9951171875, 23098.4921875, 32953.98046875, 0.0, 0.0, 0.0, 193.0, 0.0, 1.0, 1.0, 0.0, 0.0, 1.0, 1.0, 256.0, 1.0, 1.606468446086183E9, 2020-11-27 14:59:06.086
193.0, -33560.80859375, 13942.1455078125, -33656.71875, 35693.03125, 429.9134521484375, -2819.627685546875, 23029.873046875, 32936.8125, 0.0, 0.0, 0.0, 193.0, 0.0, 1.0, 1.0, 0.0, 0.0, 1.0, 1.0, 256.0, 1.0, 1.606468446086188E9, 2020-11-27 14:59:06.086
194.0, -33480.3203125, 14107.951171875, -33501.8671875, 35807.73828125, 511.7655334472656, -2736.076904296875, 23127.998046875, 33015.46875, 0.0, 0.0, 0.0, 193.0, 0.0, 1.0, 1.0, 0.0, 0.0, 1.0, 1.0, 256.0, 1.0, 1.606468446086193E9, 2020-11-27 14:59:06.086
195.0, -33393.4375, 14220.9169921875, -33393.86328125, 35880.76171875, 555.6867065429688, -2686.031494140625, 23209.021484375, 33037.75390625, 0.0, 0.0, 0.0, 193.0, 0.0, 1.0, 1.0, 0.0, 0.0, 1.0, 1.0, 256.0, 1.0, 1.606468446086198E9, 2020-11-27 14:59:06.086
196.0, -33466.28125, 14119.9990234375, -33480.72265625, 35889.03125, 518.4039916992188, -2714.306396484375, 23169.6171875, 32978.61328125, 0.0, 0.0, 0.0, 193.0, 0.0, 1.0, 1.0, 0.0, 0.0, 1.0, 1.0, 256.0, 1.0, 1.606468446146064E9, 2020-11-27 14:59:06.146
197.0, -33523.3671875, 14021.7626953125, -33569.63671875, 35868.35546875, 486.6645202636719, -2753.51123046875, 23102.6953125, 32946.3125, 0.0, 0.0, 0.0, 193.0, 0.0, 1.0, 1.0, 0.0, 0.0, 1.0, 1.0, 256.0, 1.0, 1.606468446146082E9, 2020-11-27 14:59:06.146
198.0, -33614.09375, 13930.5234375, -33676.30078125, 35789.3671875, 431.5674743652344, -2814.88916015625, 23015.568359375, 32920.1171875, 0.0, 0.0, 0.0, 193.0, 0.0, 1.0, 1.0, 0.0, 0.0, 1.0, 1.0, 256.0, 1.0, 1.606468446146086E9, 2020-11-27 14:59:06.146
199.0, -33492.703125, 14091.6572265625, -33518.67578125, 35871.57421875, 514.693603515625, -2731.74072265625, 23112.775390625, 33008.13671875, 0.0, 0.0, 0.0, 193.0, 0.0, 1.0, 1.0, 0.0, 0.0, 1.0, 1.0, 256.0, 1.0, 1.60646844614609E9, 2020-11-27 14:59:06.146
200.0, -33363.0390625, 14202.431640625, -33402.6484375, 35937.265625, 577.0549926757812, -2671.100341796875, 23209.447265625, 33038.76171875, 0.0, 0.0, 0.0, 193.0, 0.0, 1.0, 1.0, 0.0, 0.0, 1.0, 1.0, 256.0, 1.0, 1.606468446146095E9, 2020-11-27 14:59:06.146
201.0, -33426.85546875, 14134.818359375, -33468.67578125, 35888.6953125, 521.8685302734375, -2721.280029296875, 23162.306640625, 32987.015625, 0.0, 0.0, 0.0, 193.0, 0.0, 1.0, 1.0, 0.0, 0.0, 1.0, 1.0, 256.0, 1.0, 1.606468446146099E9, 2020-11-27 14:59:06.146
202.0, -33529.8046875, 14067.62890625, -33552.46875, 35792.31640625, 462.5022888183594, -2789.810546875, 23079.6953125, 32946.203125, 0.0, 0.0, 0.0, 193.0, 0.0, 1.0, 1.0, 0.0, 0.0, 1.0, 1.0, 256.0, 1.0, 1.606468446146103E9, 2020-11-27 14:59:06.146
203.0, -33633.13671875, 13949.298828125, -33662.53125, 35805.21484375, 433.7132263183594, -2810.262451171875, 23009.3984375, 32916.7421875, 0.0, 0.0, 0.0, 193.0, 0.0, 1.0, 1.0, 0.0, 0.0, 1.0, 1.0, 256.0, 1.0, 1.606468446146133E9, 2020-11-27 14:59:06.146
204.0, -33475.2890625, 14090.1142578125, -33522.71875, 35911.71875, 518.9404296875, -2719.402587890625, 23120.3984375, 33009.34375, 0.0, 0.0, 0.0, 193.0, 0.0, 1.0, 1.0, 0.0, 0.0, 1.0, 1.0, 256.0, 1.0, 1.606468446146137E9, 2020-11-27 14:59:06.146
205.0, -33351.83984375, 14239.826171875, -33384.98828125, 35944.75390625, 558.2124633789062, -2677.470703125, 23212.912109375, 33049.98046875, 0.0, 0.0, 0.0, 193.0, 0.0, 1.0, 1.0, 0.0, 0.0, 1.0, 1.0, 256.0, 1.0, 1.606468446146141E9, 2020-11-27 14:59:06.146
206.0, -33438.69921875, 14139.4443359375, -33473.30078125, 35920.68359375, 511.4526062011719, -2717.435546875, 23161.16796875, 32995.421875, 0.0, 0.0, 0.0, 193.0, 0.0, 1.0, 1.0, 0.0, 0.0, 1.0, 1.0, 256.0, 1.0, 1.606468446146146E9, 2020-11-27 14:59:06.146
207.0, -33504.94921875, 14036.626953125, -33565.2109375, 35907.62890625, 472.6052551269531, -2756.953369140625, 23093.552734375, 32944.61328125, 0.0, 0.0, 0.0, 193.0, 0.0, 1.0, 1.0, 0.0, 0.0, 1.0, 1.0, 256.0, 1.0, 1.606468446146149E9, 2020-11-27 14:59:06.146
208.0, -33637.33984375, 13941.810546875, -33657.5234375, 35850.54296875, 427.4547424316406, -2802.4169921875, 23026.07421875, 32901.0078125, 0.0, 0.0, 0.0, 193.0, 0.0, 1.0, 1.0, 0.0, 0.0, 1.0, 1.0, 256.0, 1.0, 1.606468446146154E9, 2020-11-27 14:59:06.146
209.0, -33493.8203125, 14085.509765625, -33525.08984375, 35930.00390625, 508.9491882324219, -2722.285888671875, 23124.0625, 32994.83984375, 0.0, 0.0, 0.0, 193.0, 0.0, 1.0, 1.0, 0.0, 0.0, 1.0, 1.0, 256.0, 1.0, 1.606468446146158E9, 2020-11-27 14:59:06.146
210.0, -33338.38671875, 14215.26171875, -33403.98828125, 35981.0546875, 567.8236694335938, -2678.096435546875, 23202.115234375, 33036.390625, 0.0, 0.0, 0.0, 193.0, 0.0, 1.0, 1.0, 0.0, 0.0, 1.0, 1.0, 256.0, 1.0, 1.606468446146221E9, 2020-11-27 14:59:06.146
211.0, -33385.0546875, 14134.1923828125, -33484.23046875, 35911.67578125, 521.5779418945312, -2736.904052734375, 23135.6640625, 32974.05078125, 0.0, 0.0, 0.0, 193.0, 0.0, 1.0, 1.0, 0.0, 0.0, 1.0, 1.0, 256.0, 1.0, 1.606468446205068E9, 2020-11-27 14:59:06.205
212.0, -33533.62890625, 14045.478515625, -33559.9140625, 35914.19921875, 470.1912841796875, -2769.0009765625, 23086.84765625, 32941.8203125, 0.0, 0.0, 0.0, 193.0, 0.0, 1.0, 1.0, 0.0, 0.0, 1.0, 1.0, 256.0, 1.0, 1.606468446205086E9, 2020-11-27 14:59:06.205
213.0, -33625.26953125, 13961.994140625, -33637.875, 35879.0625, 434.71905517578125, -2801.053466796875, 23029.828125, 32916.98828125, 0.0, 0.0, 0.0, 193.0, 0.0, 1.0, 1.0, 0.0, 0.0, 1.0, 1.0, 256.0, 1.0, 1.60646844620509E9, 2020-11-27 14:59:06.205
214.0, -33493.52734375, 14104.7099609375, -33515.65625, 35926.359375, 504.6800231933594, -2746.671630859375, 23104.70703125, 32993.02734375, 0.0, 0.0, 0.0, 193.0, 0.0, 1.0, 1.0, 0.0, 0.0, 1.0, 1.0, 256.0, 1.0, 1.606468446205094E9, 2020-11-27 14:59:06.205
215.0, -33369.34375, 14213.7197265625, -33408.1015625, 36024.05859375, 561.8334350585938, -2687.730224609375, 23191.453125, 33029.328125, 0.0, 0.0, 0.0, 193.0, 0.0, 1.0, 1.0, 0.0, 0.0, 1.0, 1.0, 256.0, 1.0, 1.606468446205097E9, 2020-11-27 14:59:06.205
216.0, -33430.2734375, 14140.9873046875, -33485.9296875, 35987.08984375, 512.7490234375, -2733.32763671875, 23138.279296875, 32976.84765625, 0.0, 0.0, 0.0, 193.0, 0.0, 1.0, 1.0, 0.0, 0.0, 1.0, 1.0, 256.0, 1.0, 1.606468446205101E9, 2020-11-27 14:59:06.205
217.0, -33464.44921875, 14108.3984375, -33529.1796875, 35892.9453125, 462.2117004394531, -2795.91259765625, 23078.578125, 32945.93359375, 0.0, 0.0, 0.0, 193.0, 0.0, 1.0, 1.0, 0.0, 0.0, 1.0, 1.0, 256.0, 1.0, 1.606468446205105E9, 2020-11-27 14:59:06.205
218.0, -33598.55859375, 13966.3974609375, -33648.8515625, 35876.671875, 420.1680908203125, -2834.603515625, 23003.275390625, 32907.9140625, 0.0, 0.0, 0.0, 193.0, 0.0, 1.0, 1.0, 0.0, 0.0, 1.0, 1.0, 256.0, 1.0, 1.606468446205109E9, 2020-11-27 14:59:06.205
219.0, -33469.3671875, 14069.9306640625, -33540.46875, 36004.58984375, 519.9686279296875, -2723.090576171875, 23107.2109375, 32994.8828125, 0.0, 0.0, 0.0, 193.0, 0.0, 1.0, 1.0, 0.0, 0.0, 1.0, 1.0, 256.0, 1.0, 1.606468446205113E9, 2020-11-27 14:59:06.205
220.0, -33355.3515625, 14216.3349609375, -33405.77734375, 36094.421875, 570.3494262695312, -2654.873046875, 23211.48046875, 33025.953125, 0.0, 0.0, 0.0, 193.0, 0.0, 1.0, 1.0, 0.0, 0.0, 1.0, 1.0, 256.0, 1.0, 1.606468446205117E9, 2020-11-27 14:59:06.205
221.0, -33439.70703125, 14137.791015625, -33484.1171875, 36042.9453125, 513.9559936523438, -2713.881591796875, 23148.26953125, 32966.9453125, 0.0, 0.0, 0.0, 193.0, 0.0, 1.0, 1.0, 0.0, 0.0, 1.0, 1.0, 256.0, 1.0, 1.60646844620512E9, 2020-11-27 14:59:06.205
222.0, -33508.03515625, 14069.0595703125, -33556.875, 35967.98046875, 469.2748718261719, -2771.0126953125, 23082.935546875, 32932.34375, 0.0, 0.0, 0.0, 193.0, 0.0, 1.0, 1.0, 0.0, 0.0, 1.0, 1.0, 256.0, 1.0, 1.606468446205124E9, 2020-11-27 14:59:06.205
223.0, -33598.44921875, 13963.201171875, -33655.55859375, 35908.3671875, 428.2146911621094, -2817.459716796875, 23007.7890625, 32900.06640625, 0.0, 0.0, 0.0, 193.0, 0.0, 1.0, 1.0, 0.0, 0.0, 1.0, 1.0, 256.0, 1.0, 1.606468446205128E9, 2020-11-27 14:59:06.205
224.0, -33474.55078125, 14077.1279296875, -33535.39453125, 36021.421875, 506.0211181640625, -2727.091552734375, 23099.8125, 32979.86328125, 0.0, 0.0, 0.0, 193.0, 0.0, 1.0, 1.0, 0.0, 0.0, 1.0, 1.0, 256.0, 1.0, 1.606468446205132E9, 2020-11-27 14:59:06.205
225.0, -33313.640625, 14219.642578125, -33394.98046875, 36140.890625, 597.0374145507812, -2651.18505859375, 23211.63671875, 33034.26953125, 0.0, 0.0, 0.0, 193.0, 0.0, 1.0, 1.0, 0.0, 0.0, 1.0, 1.0, 256.0, 1.0, 1.606468446205136E9, 2020-11-27 14:59:06.205
226.0, -33402.4453125, 14154.9345703125, -33481.81640625, 36011.65234375, 506.84814453125, -2747.6328125, 23128.66796875, 32972.33203125, 0.0, 0.0, 0.0, 193.0, 0.0, 1.0, 1.0, 0.0, 0.0, 1.0, 1.0, 256.0, 1.0, 1.60646844620514E9, 2020-11-27 14:59:06.205
227.0, -33524.328125, 14087.208984375, -33542.09765625, 35986.10546875, 457.58489990234375, -2785.161376953125, 23078.17578125, 32936.61328125, 0.0, 0.0, 0.0, 193.0, 0.0, 1.0, 1.0, 0.0, 0.0, 1.0, 1.0, 256.0, 1.0, 1.606468446268338E9, 2020-11-27 14:59:06.268
228.0, -33611.90234375, 13991.87890625, -33634.0546875, 35950.7890625, 419.4081115722656, -2823.829833984375, 23012.998046875, 32910.83984375, 0.0, 0.0, 0.0, 193.0, 0.0, 1.0, 1.0, 0.0, 0.0, 1.0, 1.0, 256.0, 1.0, 1.606468446268347E9, 2020-11-27 14:59:06.268
229.0, -33438.72265625, 14094.16015625, -33531.39453125, 36009.77734375, 500.4331970214844, -2754.62890625, 23094.26953125, 32987.1484375, 0.0, 0.0, 0.0, 193.0, 0.0, 1.0, 1.0, 0.0, 0.0, 1.0, 1.0, 256.0, 1.0, 1.60646844626835E9, 2020-11-27 14:59:06.268
230.0, -33326.3828125, 14214.8369140625, -33408.125, 36129.11328125, 561.3416748046875, -2677.068359375, 23193.666015625, 33023.09375, 0.0, 0.0, 0.0, 193.0, 0.0, 1.0, 1.0, 0.0, 0.0, 1.0, 1.0, 256.0, 1.0, 1.606468446268354E9, 2020-11-27 14:59:06.268
231.0, -33438.85546875, 14146.0166015625, -33474.6640625, 36112.08203125, 520.6614990234375, -2712.697021484375, 23154.640625, 32973.671875, 0.0, 0.0, 0.0, 193.0, 0.0, 1.0, 1.0, 0.0, 0.0, 1.0, 1.0, 256.0, 1.0, 1.606468446268358E9, 2020-11-27 14:59:06.268
232.0, -33495.67578125, 14074.1328125, -33545.140625, 36060.60546875, 497.23687744140625, -2748.862060546875, 23096.5703125, 32950.6484375, 0.0, 0.0, 0.0, 193.0, 0.0, 1.0, 1.0, 0.0, 0.0, 1.0, 1.0, 256.0, 1.0, 1.606468446268362E9, 2020-11-27 14:59:06.268
233.0, -33573.37109375, 13963.8271484375, -33652.5859375, 36003.80859375, 440.3517150878906, -2802.059326171875, 23021.71484375, 32909.9921875, 0.0, 0.0, 0.0, 193.0, 0.0, 1.0, 1.0, 0.0, 0.0, 1.0, 1.0, 256.0, 1.0, 1.606468446268397E9, 2020-11-27 14:59:06.268
234.0, -33478.6875, 14088.86328125, -33533.11328125, 36086.98046875, 498.68975830078125, -2739.295654296875, 23099.498046875, 32982.63671875, 0.0, 0.0, 0.0, 193.0, 0.0, 1.0, 1.0, 0.0, 0.0, 1.0, 1.0, 256.0, 1.0, 1.606468446268401E9, 2020-11-27 14:59:06.268
235.0, -33319.23046875, 14244.9453125, -33400.8359375, 36107.4296875, 556.5137329101562, -2709.34423828125, 23178.310546875, 33025.171875, 0.0, 0.0, 0.0, 193.0, 0.0, 1.0, 1.0, 0.0, 0.0, 1.0, 1.0, 256.0, 1.0, 1.606468446268405E9, 2020-11-27 14:59:06.268
236.0, -33416.32421875, 14158.4658203125, -33473.01171875, 36070.26171875, 505.3282165527344, -2752.751220703125, 23134.166015625, 32971.97265625, 0.0, 0.0, 0.0, 193.0, 0.0, 1.0, 1.0, 0.0, 0.0, 1.0, 1.0, 256.0, 1.0, 1.606468446268409E9, 2020-11-27 14:59:06.268
237.0, -33517.8046875, 14076.2568359375, -33543.6875, 36099.83203125, 476.2933044433594, -2758.786376953125, 23092.099609375, 32944.76953125, 0.0, 0.0, 0.0, 193.0, 0.0, 1.0, 1.0, 0.0, 0.0, 1.0, 1.0, 256.0, 1.0, 1.606468446268413E9, 2020-11-27 14:59:06.268
238.0, -33586.64453125, 13965.4140625, -33654.8203125, 36053.54296875, 434.89788818359375, -2806.931884765625, 23015.322265625, 32912.25, 0.0, 0.0, 0.0, 193.0, 0.0, 1.0, 1.0, 0.0, 0.0, 1.0, 1.0, 256.0, 1.0, 1.606468446268417E9, 2020-11-27 14:59:06.268
239.0, -33446.3203125, 14086.9404296875, -33540.15625, 36098.04296875, 514.1348266601562, -2738.22265625, 23093.955078125, 32988.1328125, 0.0, 0.0, 0.0, 193.0, 0.0, 1.0, 1.0, 0.0, 0.0, 1.0, 1.0, 256.0, 1.0, 1.606468446268421E9, 2020-11-27 14:59:06.268
240.0, -33331.12109375, 14242.486328125, -33384.2734375, 36207.72265625, 589.7060546875, -2655.07421875, 23206.966796875, 33037.77734375, 0.0, 0.0, 0.0, 193.0, 0.0, 1.0, 1.0, 0.0, 0.0, 1.0, 1.0, 256.0, 1.0, 1.606468446268425E9, 2020-11-27 14:59:06.268
241.0, -33412.9296875, 14170.1787109375, -33450.3671875, 36146.8359375, 538.2747192382812, -2707.869140625, 23153.6796875, 32989.5859375, 0.0, 0.0, 0.0, 193.0, 0.0, 1.0, 1.0, 0.0, 0.0, 1.0, 1.0, 256.0, 1.0, 1.606468446268429E9, 2020-11-27 14:59:06.268
242.0, -33475.9140625, 14087.1865234375, -33542.4140625, 36087.73828125, 478.77435302734375, -2771.347900390625, 23085.349609375, 32944.4375, 0.0, 0.0, 0.0, 193.0, 0.0, 1.0, 1.0, 0.0, 0.0, 1.0, 1.0, 256.0, 1.0, 1.606468446326082E9, 2020-11-27 14:59:06.326
243.0, -33596.21484375, 13989.017578125, -33642.83984375, 36029.58203125, 417.4635009765625, -2822.555908203125, 23015.58984375, 32910.68359375, 0.0, 0.0, 0.0, 193.0, 0.0, 1.0, 1.0, 0.0, 0.0, 1.0, 1.0, 256.0, 1.0, 1.6064684463261E9, 2020-11-27 14:59:06.326
244.0, -33484.74609375, 14057.5703125, -33559.22265625, 36116.26171875, 493.2359313964844, -2752.6396484375, 23088.45703125, 32974.58984375, 0.0, 0.0, 0.0, 193.0, 0.0, 1.0, 1.0, 0.0, 0.0, 1.0, 1.0, 256.0, 1.0, 1.606468446326104E9, 2020-11-27 14:59:06.326
245.0, -33335.43359375, 14211.2607421875, -33409.57421875, 36230.07421875, 562.4369506835938, -2671.8828125, 23190.73828125, 33020.38671875, 0.0, 0.0, 0.0, 193.0, 0.0, 1.0, 1.0, 0.0, 0.0, 1.0, 1.0, 256.0, 1.0, 1.606468446326108E9, 2020-11-27 14:59:06.326
246.0, -33422.2734375, 14150.12890625, -33469.61328125, 36196.83984375, 513.7548217773438, -2709.478271484375, 23142.236328125, 32978.9921875, 0.0, 0.0, 0.0, 193.0, 0.0, 1.0, 1.0, 0.0, 0.0, 1.0, 1.0, 256.0, 1.0, 1.606468446326112E9, 2020-11-27 14:59:06.326
247.0, -33471.0, 14068.0537109375, -33553.3203125, 36116.57421875, 476.114501953125, -2762.988525390625, 23087.25, 32936.1875, 0.0, 0.0, 0.0, 193.0, 0.0, 1.0, 1.0, 0.0, 0.0, 1.0, 1.0, 256.0, 1.0, 1.606468446326115E9, 2020-11-27 14:59:06.326
248.0, -33590.87109375, 13976.232421875, -33649.6328125, 36071.265625, 425.6219177246094, -2818.3759765625, 23014.47265625, 32906.7734375, 0.0, 0.0, 0.0, 193.0, 0.0, 1.0, 1.0, 0.0, 0.0, 1.0, 1.0, 256.0, 1.0, 1.606468446326119E9, 2020-11-27 14:59:06.326
249.0, -33501.7109375, 14083.8115234375, -33549.54296875, 36151.6875, 486.21746826171875, -2760.4404296875, 23071.626953125, 32978.41015625, 0.0, 0.0, 0.0, 193.0, 0.0, 1.0, 1.0, 0.0, 0.0, 1.0, 1.0, 256.0, 1.0, 1.606468446326123E9, 2020-11-27 14:59:06.326
250.0, -33369.8125, 14234.1044921875, -33404.2109375, 36244.0, 554.3009033203125, -2682.14208984375, 23183.138671875, 33028.6796875, 0.0, 0.0, 0.0, 193.0, 0.0, 1.0, 1.0, 0.0, 0.0, 1.0, 1.0, 256.0, 1.0, 1.606468446326127E9, 2020-11-27 14:59:06.326
251.0, -33415.38671875, 14167.541015625, -33467.33203125, 36203.07421875, 516.8840942382812, -2725.392822265625, 23147.5546875, 32980.890625, 0.0, 0.0, 0.0, 193.0, 0.0, 1.0, 1.0, 0.0, 0.0, 1.0, 1.0, 256.0, 1.0, 1.60646844632613E9, 2020-11-27 14:59:06.326
252.0, -33476.40625, 14097.423828125, -33533.62890625, 36127.1015625, 472.44879150390625, -2780.71337890625, 23082.19921875, 32945.41796875, 0.0, 0.0, 0.0, 193.0, 0.0, 1.0, 1.0, 0.0, 0.0, 1.0, 1.0, 256.0, 1.0, 1.606468446326134E9, 2020-11-27 14:59:06.326
253.0, -33555.375, 13972.611328125, -33651.46484375, 36099.5859375, 433.2662048339844, -2817.7724609375, 23006.3359375, 32905.76953125, 0.0, 0.0, 0.0, 193.0, 0.0, 1.0, 1.0, 0.0, 0.0, 1.0, 1.0, 256.0, 1.0, 1.606468446326138E9, 2020-11-27 14:59:06.326
254.0, -33482.93359375, 14071.96484375, -33559.265625, 36185.28125, 491.0231018066406, -2744.659912109375, 23076.857421875, 32972.48828125, 0.0, 0.0, 0.0, 193.0, 0.0, 1.0, 1.0, 0.0, 0.0, 1.0, 1.0, 256.0, 1.0, 1.606468446326143E9, 2020-11-27 14:59:06.326
255.0, -33358.0546875, 14232.31640625, -33397.23828125, 36270.62109375, 556.2008056640625, -2678.699951171875, 23187.05078125, 33031.5859375, 0.0, 0.0, 0.0, 193.0, 0.0, 1.0, 1.0, 0.0, 0.0, 1.0, 1.0, 256.0, 1.0, 1.606468446326147E9, 2020-11-27 14:59:06.326
0.0, -33380.140625, 14163.80859375, -33464.65234375, 36208.7734375, 510.3126525878906, -2731.561767578125, 23139.060546875, 32981.29296875, 0.0, 0.0, 0.0, 193.0, 0.0, 1.0, 1.0, 0.0, 0.0, 1.0, 1.0, 256.0, 1.0, 1.606468446326183E9, 2020-11-27 14:59:06.326
1.0, -33459.33203125, 14075.1162109375, -33551.98046875, 36187.2265625, 479.2884521484375, -2764.73193359375, 23081.640625, 32942.625, 0.0, 0.0, 0.0, 193.0, 0.0, 1.0, 1.0, 0.0, 0.0, 1.0, 1.0, 256.0, 1.0, 1.606468446386072E9, 2020-11-27 14:59:06.386
2.0, -33582.80078125, 13973.3046875, -33649.38671875, 36149.140625, 439.4129333496094, -2806.216796875, 23013.33203125, 32919.24609375, 0.0, 0.0, 0.0, 193.0, 0.0, 1.0, 1.0, 0.0, 0.0, 1.0, 1.0, 256.0, 1.0, 1.606468446386091E9, 2020-11-27 14:59:06.386
3.0, -33489.86328125, 14089.623046875, -33547.77734375, 36191.09375, 492.2971496582031, -2757.065185546875, 23075.560546875, 32986.546875, 0.0, 0.0, 0.0, 193.0, 0.0, 1.0, 1.0, 0.0, 0.0, 1.0, 1.0, 256.0, 1.0, 1.606468446386095E9, 2020-11-27 14:59:06.386
4.0, -33344.95703125, 14261.619140625, -33381.03125, 36267.8515625, 553.1609497070312, -2689.495849609375, 23188.59375, 33024.41015625, 0.0, 0.0, 0.0, 193.0, 0.0, 1.0, 1.0, 0.0, 0.0, 1.0, 1.0, 256.0, 1.0, 1.606468446386099E9, 2020-11-27 14:59:06.386
5.0, -33379.55859375, 14201.0458984375, -33442.43359375, 36240.69140625, 518.3145751953125, -2715.46875, 23153.076171875, 32978.9453125, 0.0, 0.0, 0.0, 193.0, 0.0, 1.0, 1.0, 0.0, 0.0, 1.0, 1.0, 256.0, 1.0, 1.606468446386103E9, 2020-11-27 14:59:06.386
6.0, -33461.38671875, 14073.529296875, -33545.2734375, 36211.30078125, 482.8647155761719, -2750.873779296875, 23090.982421875, 32931.0234375, 0.0, 0.0, 0.0, 193.0, 0.0, 1.0, 1.0, 0.0, 0.0, 1.0, 1.0, 256.0, 1.0, 1.606468446386106E9, 2020-11-27 14:59:06.386
7.0, -33595.4765625, 13943.7548828125, -33676.3671875, 36202.6484375, 428.75115966796875, -2803.333251953125, 23001.330078125, 32893.8984375, 0.0, 0.0, 0.0, 193.0, 0.0, 1.0, 1.0, 0.0, 0.0, 1.0, 1.0, 256.0, 1.0, 1.60646844638611E9, 2020-11-27 14:59:06.386
8.0, -33514.78515625, 14057.9951171875, -33581.640625, 36267.71484375, 478.2379150390625, -2755.388916015625, 23055.734375, 32962.18359375, 0.0, 0.0, 0.0, 193.0, 0.0, 1.0, 1.0, 0.0, 0.0, 1.0, 1.0, 256.0, 1.0, 1.606468446386114E9, 2020-11-27 14:59:06.386
9.0, -33323.96875, 14225.1865234375, -33416.4375, 36316.95703125, 549.919921875, -2687.95361328125, 23169.90625, 33023.3828125, 0.0, 0.0, 0.0, 193.0, 0.0, 1.0, 1.0, 0.0, 0.0, 1.0, 1.0, 256.0, 1.0, 1.606468446386118E9, 2020-11-27 14:59:06.386
10.0, -33381.5703125, 14160.34375, -33469.48046875, 36281.57421875, 517.487548828125, -2721.481201171875, 23144.1796875, 32977.29296875, 0.0, 0.0, 0.0, 193.0, 0.0, 1.0, 1.0, 0.0, 0.0, 1.0, 1.0, 256.0, 1.0, 1.606468446386121E9, 2020-11-27 14:59:06.386
11.0, -33477.81640625, 14090.0478515625, -33547.21875, 36241.5859375, 473.49932861328125, -2770.476318359375, 23079.673828125, 32936.5, 0.0, 0.0, 0.0, 193.0, 0.0, 1.0, 1.0, 0.0, 0.0, 1.0, 1.0, 256.0, 1.0, 1.606468446386125E9, 2020-11-27 14:59:06.386
12.0, -33555.80078125, 13989.822265625, -33639.12890625, 36216.26171875, 430.9192810058594, -2800.673583984375, 23018.5625, 32907.375, 0.0, 0.0, 0.0, 193.0, 0.0, 1.0, 1.0, 0.0, 0.0, 1.0, 1.0, 256.0, 1.0, 1.606468446386129E9, 2020-11-27 14:59:06.386
13.0, -33472.765625, 14080.1455078125, -33558.171875, 36263.55859375, 484.2281799316406, -2754.94189453125, 23064.18359375, 32972.98046875, 0.0, 0.0, 0.0, 193.0, 0.0, 1.0, 1.0, 0.0, 0.0, 1.0, 1.0, 256.0, 1.0, 1.606468446386133E9, 2020-11-27 14:59:06.386
14.0, -33335.0546875, 14241.63671875, -33381.6796875, 36381.6875, 570.9976196289062, -2664.19384765625, 23192.794921875, 33031.33984375, 0.0, 0.0, 0.0, 193.0, 0.0, 1.0, 1.0, 0.0, 0.0, 1.0, 1.0, 256.0, 1.0, 1.606468446386137E9, 2020-11-27 14:59:06.386
15.0, -33403.31640625, 14147.55859375, -33461.8125, 36413.44921875, 542.83447265625, -2682.36572265625, 23171.158203125, 32983.015625, 0.0, 0.0, 0.0, 193.0, 0.0, 1.0, 1.0, 0.0, 0.0, 1.0, 1.0, 256.0, 1.0, 1.606468446386141E9, 2020-11-27 14:59:06.386
16.0, -33452.7578125, 14057.32421875, -33555.48828125, 36375.49609375, 508.45745849609375, -2717.882568359375, 23114.408203125, 32949.5546875, 0.0, 0.0, 0.0, 193.0, 0.0, 1.0, 1.0, 0.0, 0.0, 1.0, 1.0, 256.0, 1.0, 1.606468446447174E9, 2020-11-27 14:59:06.447
17.0, -33560.16015625, 13982.4912109375, -33648.58203125, 36269.83984375, 434.1379089355469, -2796.247802734375, 23024.1953125, 32909.2109375, 0.0, 0.0, 0.0, 193.0, 0.0, 1.0, 1.0, 0.0, 0.0, 1.0, 1.0, 256.0, 1.0, 1.606468446447197E9, 2020-11-27 14:59:06.447
18.0, -33498.24609375, 14091.8583984375, -33562.9765625, 36259.9609375, 479.1766662597656, -2767.7939453125, 23065.501953125, 32985.98828125, 0.0, 0.0, 0.0, 193.0, 0.0, 1.0, 1.0, 0.0, 0.0, 1.0, 1.0, 256.0, 1.0, 1.606468446447201E9, 2020-11-27 14:59:06.447
19.0, -33298.53125, 14213.5634765625, -33418.0234375, 36408.59765625, 580.0947875976562, -2652.950927734375, 23194.583984375, 33033.375, 0.0, 0.0, 0.0, 193.0, 0.0, 1.0, 1.0, 0.0, 0.0, 1.0, 1.0, 256.0, 1.0, 1.606468446447205E9, 2020-11-27 14:59:06.447
20.0, -33429.7578125, 14132.4267578125, -33466.125, 36454.30859375, 544.9578857421875, -2662.740966796875, 23179.697265625, 32972.12890625, 0.0, 0.0, 0.0, 193.0, 0.0, 1.0, 1.0, 0.0, 0.0, 1.0, 1.0, 256.0, 1.0, 1.606468446447209E9, 2020-11-27 14:59:06.447
21.0, -33530.07421875, 14068.9921875, -33540.3125, 36412.421875, 491.1572265625, -2715.15576171875, 23106.62890625, 32943.02734375, 0.0, 0.0, 0.0, 193.0, 0.0, 1.0, 1.0, 0.0, 0.0, 1.0, 1.0, 256.0, 1.0, 1.606468446447213E9, 2020-11-27 14:59:06.447
22.0, -33598.1796875, 13981.2392578125, -33642.81640625, 36309.73828125, 427.3653259277344, -2796.0244140625, 23020.41796875, 32911.71484375, 0.0, 0.0, 0.0, 193.0, 0.0, 1.0, 1.0, 0.0, 0.0, 1.0, 1.0, 256.0, 1.0, 1.606468446447217E9, 2020-11-27 14:59:06.447
23.0, -33474.5078125, 14070.154296875, -33566.70703125, 36338.30078125, 490.8890075683594, -2763.457763671875, 23068.5859375, 32977.359375, 0.0, 0.0, 0.0, 193.0, 0.0, 1.0, 1.0, 0.0, 0.0, 1.0, 1.0, 256.0, 1.0, 1.606468446447222E9, 2020-11-27 14:59:06.447
24.0, -33315.23046875, 14214.1220703125, -33411.25390625, 36452.96875, 587.560302734375, -2664.506591796875, 23192.056640625, 33035.31640625, 0.0, 0.0, 0.0, 193.0, 0.0, 1.0, 1.0, 0.0, 0.0, 1.0, 1.0, 256.0, 1.0, 1.606468446447276E9, 2020-11-27 14:59:06.447
25.0, -33372.0703125, 14135.890625, -33469.859375, 36457.86328125, 553.675048828125, -2670.832275390625, 23170.734375, 32985.98828125, 0.0, 0.0, 0.0, 193.0, 0.0, 1.0, 1.0, 0.0, 0.0, 1.0, 1.0, 256.0, 1.0, 1.60646844644728E9, 2020-11-27 14:59:06.447
26.0, -33438.1640625, 14064.2314453125, -33530.69921875, 36368.1640625, 498.8462219238281, -2724.94580078125, 23119.97265625, 32958.046875, 0.0, 0.0, 0.0, 193.0, 0.0, 1.0, 1.0, 0.0, 0.0, 1.0, 1.0, 256.0, 1.0, 1.606468446447284E9, 2020-11-27 14:59:06.447
27.0, -33646.796875, 13962.1953125, -33651.37890625, 36360.83203125, 447.07958984375, -2767.8388671875, 23050.884765625, 32926.44140625, 0.0, 0.0, 0.0, 193.0, 0.0, 1.0, 1.0, 0.0, 0.0, 1.0, 1.0, 256.0, 1.0, 1.606468446447289E9, 2020-11-27 14:59:06.447
28.0, -33576.36328125, 14024.7802734375, -33580.34375, 36511.10546875, 524.394287109375, -2673.134521484375, 23120.599609375, 32986.94921875, 0.0, 0.0, 0.0, 193.0, 0.0, 1.0, 1.0, 0.0, 0.0, 1.0, 1.0, 256.0, 1.0, 1.606468446447293E9, 2020-11-27 14:59:06.447
29.0, -33392.72265625, 14204.3994140625, -33403.09375, 36545.66015625, 590.1307373046875, -2622.418212890625, 23220.958984375, 33046.62890625, 0.0, 0.0, 0.0, 193.0, 0.0, 1.0, 1.0, 0.0, 0.0, 1.0, 1.0, 256.0, 1.0, 1.606468446447296E9, 2020-11-27 14:59:06.447
30.0, -33389.52734375, 14145.255859375, -33467.82421875, 36410.921875, 535.1677856445312, -2706.32666015625, 23155.802734375, 32998.83984375, 0.0, 0.0, 0.0, 193.0, 0.0, 1.0, 1.0, 0.0, 0.0, 1.0, 1.0, 256.0, 1.0, 1.606468446447301E9, 2020-11-27 14:59:06.447
31.0, -33523.0546875, 14069.4833984375, -33451.75390625, 36303.76953125, 448.7783203125, -2813.168212890625, 23075.873046875, 32969.15625, 0.0, 0.0, 0.0, 193.0, 0.0, 1.0, 1.0, 0.0, 0.0, 1.0, 1.0, 256.0, 1.0, 1.606468446507125E9, 2020-11-27 14:59:06.507
32.0, -33622.51953125, 13930.2548828125, -33660.40625, 36404.46484375, 448.4206848144531, -2790.548095703125, 23038.970703125, 32908.65234375, 0.0, 0.0, 0.0, 193.0, 0.0, 1.0, 1.0, 0.0, 0.0, 1.0, 1.0, 256.0, 1.0, 1.606468446507151E9, 2020-11-27 14:59:06.507
33.0, -33538.65625, 14025.0263671875, -33645.38671875, 36498.02734375, 546.43310546875, -2667.322998046875, 23122.744140625, 32972.2421875, 0.0, 0.0, 0.0, 193.0, 0.0, 1.0, 1.0, 0.0, 0.0, 1.0, 1.0, 256.0, 1.0, 1.606468446507156E9, 2020-11-27 14:59:06.507
34.0, -33340.3984375, 14188.3955078125, -33462.55078125, 36515.0390625, 597.4174194335938, -2626.128662109375, 23212.30859375, 33036.83984375, 0.0, 0.0, 0.0, 193.0, 0.0, 1.0, 1.0, 0.0, 0.0, 1.0, 1.0, 256.0, 1.0, 1.60646844650716E9, 2020-11-27 14:59:06.507
35.0, -33439.59375, 14144.6083984375, -33479.24609375, 36399.61328125, 536.9112548828125, -2704.114013671875, 23159.177734375, 32999.7578125, 0.0, 0.0, 0.0, 193.0, 0.0, 1.0, 1.0, 0.0, 0.0, 1.0, 1.0, 256.0, 1.0, 1.606468446507165E9, 2020-11-27 14:59:06.507
36.0, -33549.69921875, 14085.3984375, -33535.640625, 36371.47265625, 507.898681640625, -2729.4609375, 23131.73046875, 32970.453125, 0.0, 0.0, 0.0, 193.0, 0.0, 1.0, 1.0, 0.0, 0.0, 1.0, 1.0, 256.0, 1.0, 1.606468446507169E9, 2020-11-27 14:59:06.507
37.0, -33621.40234375, 13938.2119140625, -33699.65625, 36362.5546875, 461.83172607421875, -2771.83984375, 23056.6953125, 32930.53515625, 0.0, 0.0, 0.0, 193.0, 0.0, 1.0, 1.0, 0.0, 0.0, 1.0, 1.0, 256.0, 1.0, 1.606468446507174E9, 2020-11-27 14:59:06.507
38.0, -33566.1484375, 13971.7392578125, -33621.203125, 36395.65625, 511.6761169433594, -2742.380126953125, 23092.591796875, 32994.14453125, 0.0, 0.0, 0.0, 193.0, 0.0, 1.0, 1.0, 0.0, 0.0, 1.0, 1.0, 256.0, 1.0, 1.606468446507179E9, 2020-11-27 14:59:06.507
39.0, -33426.5390625, 14152.3642578125, -33453.31640625, 36473.84375, 589.3707885742188, -2674.54248046875, 23221.31640625, 33063.99609375, 0.0, 0.0, 0.0, 193.0, 0.0, 1.0, 1.0, 0.0, 0.0, 1.0, 1.0, 256.0, 1.0, 1.606468446507183E9, 2020-11-27 14:59:06.507
40.0, -33475.24609375, 14101.87109375, -33535.125, 36455.22265625, 565.521484375, -2693.2734375, 23199.166015625, 33012.83203125, 0.0, 0.0, 0.0, 193.0, 0.0, 1.0, 1.0, 0.0, 0.0, 1.0, 1.0, 256.0, 1.0, 1.606468446507188E9, 2020-11-27 14:59:06.507
41.0, -33572.69921875, 13997.1982421875, -33619.75, 36433.296875, 528.84228515625, -2714.060546875, 23150.751953125, 32969.94140625, 0.0, 0.0, 0.0, 193.0, 0.0, 1.0, 1.0, 0.0, 0.0, 1.0, 1.0, 256.0, 1.0, 1.606468446507193E9, 2020-11-27 14:59:06.507
42.0, -33675.71875, 13881.5283203125, -33714.34375, 36390.80859375, 492.8112487792969, -2742.31298828125, 23083.3828125, 32947.23046875, 0.0, 0.0, 0.0, 193.0, 0.0, 1.0, 1.0, 0.0, 0.0, 1.0, 1.0, 256.0, 1.0, 1.606468446507198E9, 2020-11-27 14:59:06.507
43.0, -33614.33984375, 13949.052734375, -33633.5625, 36433.02734375, 553.6079711914062, -2701.0517578125, 23123.28125, 33016.1171875, 0.0, 0.0, 0.0, 193.0, 0.0, 1.0, 1.0, 0.0, 0.0, 1.0, 1.0, 256.0, 1.0, 1.606468446507202E9, 2020-11-27 14:59:06.507
44.0, -33436.80078125, 14117.115234375, -33448.35546875, 36500.578125, 643.7973022460938, -2632.633056640625, 23249.45703125, 33088.046875, 0.0, 0.0, 0.0, 193.0, 0.0, 1.0, 1.0, 0.0, 0.0, 1.0, 1.0, 256.0, 1.0, 1.606468446507231E9, 2020-11-27 14:59:06.507
45.0, -33528.2421875, 14057.1005859375, -33521.828125, 36497.78125, 584.5651245117188, -2671.4580078125, 23226.43359375, 33028.09765625, 0.0, 0.0, 0.0, 193.0, 0.0, 1.0, 1.0, 0.0, 0.0, 1.0, 1.0, 256.0, 1.0, 1.606468446507236E9, 2020-11-27 14:59:06.507
46.0, -33617.0, 13968.3642578125, -33594.11328125, 36498.02734375, 554.3232421875, -2687.283203125, 23177.373046875, 32988.42578125, 0.0, 0.0, 0.0, 193.0, 0.0, 1.0, 1.0, 0.0, 0.0, 1.0, 1.0, 256.0, 1.0, 1.606468446567151E9, 2020-11-27 14:59:06.567
47.0, -33685.6640625, 13866.9990234375, -33692.078125, 36459.671875, 524.483642578125, -2720.006103515625, 23114.228515625, 32954.984375, 0.0, 0.0, 0.0, 193.0, 0.0, 1.0, 1.0, 0.0, 0.0, 1.0, 1.0, 256.0, 1.0, 1.606468446567209E9, 2020-11-27 14:59:06.567
48.0, -33627.015625, 13938.1669921875, -33604.796875, 36489.578125, 561.6546020507812, -2696.380126953125, 23136.9375, 33018.64453125, 0.0, 0.0, 0.0, 193.0, 0.0, 1.0, 1.0, 0.0, 0.0, 1.0, 1.0, 256.0, 1.0, 1.606468446567214E9, 2020-11-27 14:59:06.567
49.0, -33456.78125, 14107.83984375, -33430.09375, 36580.6171875, 642.724365234375, -2627.022705078125, 23263.203125, 33085.8984375, 0.0, 0.0, 0.0, 193.0, 0.0, 1.0, 1.0, 0.0, 0.0, 1.0, 1.0, 256.0, 1.0, 1.606468446567218E9, 2020-11-27 14:59:06.567
50.0, -33497.23828125, 14063.3369140625, -33436.0625, 36555.671875, 597.1044921875, -2671.726318359375, 23227.775390625, 33044.05859375, 0.0, 0.0, 0.0, 193.0, 0.0, 1.0, 1.0, 0.0, 0.0, 1.0, 1.0, 256.0, 1.0, 1.606468446567223E9, 2020-11-27 14:59:06.567
51.0, -33581.19140625, 14005.06640625, -33572.8125, 36551.0234375, 564.9850463867188, -2657.108154296875, 23204.708984375, 33002.328125, 0.0, 0.0, 0.0, 193.0, 0.0, 1.0, 1.0, 0.0, 0.0, 1.0, 1.0, 256.0, 1.0, 1.606468446567227E9, 2020-11-27 14:59:06.567
52.0, -33649.54296875, 13870.6875, -33653.703125, 36457.796875, 518.4039916992188, -2713.099365234375, 23106.763671875, 32960.3515625, 0.0, 0.0, 0.0, 193.0, 0.0, 1.0, 1.0, 0.0, 0.0, 1.0, 1.0, 256.0, 1.0, 1.606468446567231E9, 2020-11-27 14:59:06.567
53.0, -33626.4765625, 13946.6162109375, -33572.765625, 36485.98046875, 553.9432373046875, -2707.82421875, 23134.92578125, 33018.28515625, 0.0, 0.0, 0.0, 193.0, 0.0, 1.0, 1.0, 0.0, 0.0, 1.0, 1.0, 256.0, 1.0, 1.606468446567235E9, 2020-11-27 14:59:06.567
54.0, -33498.2890625, 14129.6767578125, -33390.265625, 36803.33203125, 626.4075927734375, -2623.535888671875, 23262.30859375, 33085.1171875, 0.0, 0.0, 0.0, 193.0, 0.0, 1.0, 1.0, 0.0, 0.0, 1.0, 1.0, 256.0, 1.0, 1.606468446567239E9, 2020-11-27 14:59:06.567
55.0, -33520.5078125, 14106.990234375, -33489.328125, 36823.3359375, 591.7177124023438, -2642.6689453125, 23249.904296875, 33026.625, 0.0, 0.0, 0.0, 193.0, 0.0, 1.0, 1.0, 0.0, 0.0, 1.0, 1.0, 256.0, 1.0, 1.606468446567243E9, 2020-11-27 14:59:06.567
56.0, -33539.6640625, 14026.3896484375, -33570.0625, 36755.1171875, 558.6148071289062, -2677.291748046875, 23193.46484375, 32990.28125, 0.0, 0.0, 0.0, 193.0, 0.0, 1.0, 1.0, 0.0, 0.0, 1.0, 1.0, 256.0, 1.0, 1.606468446567248E9, 2020-11-27 14:59:06.567
57.0, -33643.59765625, 13915.7705078125, -33647.5546875, 36711.93359375, 507.697509765625, -2726.95751953125, 23121.224609375, 32957.1328125, 0.0, 0.0, 0.0, 193.0, 0.0, 1.0, 1.0, 0.0, 0.0, 1.0, 1.0, 256.0, 1.0, 1.606468446567252E9, 2020-11-27 14:59:06.567
58.0, -33644.359375, 13974.869140625, -33588.3671875, 36721.859375, 545.673095703125, -2667.39013671875, 23163.916015625, 33009.234375, 0.0, 0.0, 0.0, 193.0, 0.0, 1.0, 1.0, 0.0, 0.0, 1.0, 1.0, 256.0, 1.0, 1.606468446567257E9, 2020-11-27 14:59:06.567
59.0, -33476.25, 14151.693359375, -33409.12890625, 36795.1953125, 642.0091552734375, -2556.570068359375, 23291.25390625, 33077.02734375, 0.0, 0.0, 0.0, 193.0, 0.0, 1.0, 1.0, 0.0, 0.0, 1.0, 1.0, 256.0, 1.0, 1.606468446567261E9, 2020-11-27 14:59:06.567
60.0, -33506.60546875, 14102.0947265625, -33444.265625, 36769.40234375, 605.19580078125, -2597.138427734375, 23267.8515625, 33040.7734375, 0.0, 0.0, 0.0, 193.0, 0.0, 1.0, 1.0, 0.0, 0.0, 1.0, 1.0, 256.0, 1.0, 1.606468446567265E9, 2020-11-27 14:59:06.567
61.0, -33536.48828125, 14025.5625, -33514.76171875, 36817.8828125, 566.5943603515625, -2651.006103515625, 23207.771484375, 33005.078125, 0.0, 0.0, 0.0, 193.0, 0.0, 1.0, 1.0, 0.0, 0.0, 1.0, 1.0, 256.0, 1.0, 1.606468446626111E9, 2020-11-27 14:59:06.626
62.0, -33658.53125, 13881.953125, -33492.09765625, 36770.44921875, 496.1863708496094, -2758.00390625, 23080.27734375, 32966.65234375, 0.0, 0.0, 0.0, 193.0, 0.0, 1.0, 1.0, 0.0, 0.0, 1.0, 1.0, 256.0, 1.0, 1.606468446626134E9, 2020-11-27 14:59:06.626
63.0, -33633.44921875, 13979.4287109375, -33506.29296875, 36768.1953125, 531.5244750976562, -2725.4375, 23140.537109375, 33010.8671875, 0.0, 0.0, 0.0, 193.0, 0.0, 1.0, 1.0, 0.0, 0.0, 1.0, 1.0, 256.0, 1.0, 1.606468446626138E9, 2020-11-27 14:59:06.626
64.0, -33455.3515625, 14172.81640625, -33408.34765625, 36891.30859375, 638.3881225585938, -2570.182373046875, 23289.265625, 33077.29296875, 0.0, 0.0, 0.0, 193.0, 0.0, 1.0, 1.0, 0.0, 0.0, 1.0, 1.0, 256.0, 1.0, 1.606468446626142E9, 2020-11-27 14:59:06.626
65.0, -33481.8828125, 14122.14453125, -33438.6328125, 36867.390625, 600.7254638671875, -2599.932373046875, 23253.345703125, 33034.15625, 0.0, 0.0, 0.0, 193.0, 0.0, 1.0, 1.0, 0.0, 0.0, 1.0, 1.0, 256.0, 1.0, 1.606468446626145E9, 2020-11-27 14:59:06.626
66.0, -33550.32421875, 14032.513671875, -33552.6953125, 36817.546875, 570.3941650390625, -2616.226806640625, 23206.98828125, 32992.91796875, 0.0, 0.0, 0.0, 193.0, 0.0, 1.0, 1.0, 0.0, 0.0, 1.0, 1.0, 256.0, 1.0, 1.606468446626149E9, 2020-11-27 14:59:06.626
67.0, -33651.9375, 13931.685546875, -33608.10546875, 36833.70703125, 513.397216796875, -2686.433837890625, 23126.142578125, 32957.37890625, 0.0, 0.0, 0.0, 193.0, 0.0, 1.0, 1.0, 0.0, 0.0, 1.0, 1.0, 256.0, 1.0, 1.606468446626153E9, 2020-11-27 14:59:06.626
68.0, -33632.37890625, 13981.328125, -33551.46484375, 36924.4765625, 559.4417724609375, -2642.736083984375, 23163.603515625, 33002.9765625, 0.0, 0.0, 0.0, 193.0, 0.0, 1.0, 1.0, 0.0, 0.0, 1.0, 1.0, 256.0, 1.0, 1.606468446626157E9, 2020-11-27 14:59:06.626
69.0, -33483.875, 14192.0830078125, -33367.9140625, 36947.41015625, 629.4921264648438, -2511.598388671875, 23307.81640625, 33081.33984375, 0.0, 0.0, 0.0, 193.0, 0.0, 1.0, 1.0, 0.0, 0.0, 1.0, 1.0, 256.0, 1.0, 1.60646844662616E9, 2020-11-27 14:59:06.626
70.0, -33527.52734375, 14158.287109375, -33391.8046875, 36865.1328125, 580.9218139648438, -2547.294189453125, 23299.099609375, 33048.41796875, 0.0, 0.0, 0.0, 193.0, 0.0, 1.0, 1.0, 0.0, 0.0, 1.0, 1.0, 256.0, 1.0, 1.606468446626213E9, 2020-11-27 14:59:06.626
71.0, -33572.56640625, 14057.7490234375, -33486.62109375, 36923.31640625, 550.5457763671875, -2639.4951171875, 23205.087890625, 32998.99609375, 0.0, 0.0, 0.0, 193.0, 0.0, 1.0, 1.0, 0.0, 0.0, 1.0, 1.0, 256.0, 1.0, 1.606468446626217E9, 2020-11-27 14:59:06.626
72.0, -33632.53515625, 13914.384765625, -33615.63671875, 36904.94140625, 526.2941284179688, -2658.717529296875, 23132.244140625, 32947.2734375, 0.0, 0.0, 0.0, 193.0, 0.0, 1.0, 1.0, 0.0, 0.0, 1.0, 1.0, 256.0, 1.0, 1.606468446626222E9, 2020-11-27 14:59:06.626
73.0, -33565.9921875, 13948.6279296875, -33576.03125, 36873.44921875, 571.3999633789062, -2615.824462890625, 23164.318359375, 32999.84765625, 0.0, 0.0, 0.0, 193.0, 0.0, 1.0, 1.0, 0.0, 0.0, 1.0, 1.0, 256.0, 1.0, 1.606468446626226E9, 2020-11-27 14:59:06.626
74.0, -33384.69921875, 14146.2392578125, -33345.91796875, 37077.87890625, 644.3560791015625, -2554.558349609375, 23289.064453125, 33083.3515625, 0.0, 0.0, 0.0, 193.0, 0.0, 1.0, 1.0, 0.0, 0.0, 1.0, 1.0, 256.0, 1.0, 1.60646844662623E9, 2020-11-27 14:59:06.626
75.0, -33482.21875, 14121.228515625, -33393.73046875, 37092.359375, 587.962646484375, -2611.890625, 23244.046875, 33030.40234375, 0.0, 0.0, 0.0, 193.0, 0.0, 1.0, 1.0, 0.0, 0.0, 1.0, 1.0, 256.0, 1.0, 1.606468446626234E9, 2020-11-27 14:59:06.626
76.0, -33621.203125, 14029.2060546875, -33475.1796875, 36988.203125, 536.978271484375, -2652.637939453125, 23179.09375, 32985.00390625, 0.0, 0.0, 0.0, 193.0, 0.0, 1.0, 1.0, 0.0, 0.0, 1.0, 1.0, 256.0, 1.0, 1.606468446687102E9, 2020-11-27 14:59:06.687
77.0, -33700.9296875, 13914.2958984375, -33597.48828125, 36910.484375, 498.0191955566406, -2666.227783203125, 23132.021484375, 32951.6328125, 0.0, 0.0, 0.0, 193.0, 0.0, 1.0, 1.0, 0.0, 0.0, 1.0, 1.0, 256.0, 1.0, 1.60646844668712E9, 2020-11-27 14:59:06.687
78.0, -33651.48828125, 13959.267578125, -33600.7734375, 36907.421875, 541.3145141601562, -2614.19287109375, 23168.587890625, 32993.453125, 0.0, 0.0, 0.0, 193.0, 0.0, 1.0, 1.0, 0.0, 0.0, 1.0, 1.0, 256.0, 1.0, 1.606468446687124E9, 2020-11-27 14:59:06.687
79.0, -33458.79296875, 14169.1279296875, -33385.2109375, 36889.1171875, 633.6495971679688, -2510.592529296875, 23284.548828125, 33069.3828125, 0.0, 0.0, 0.0, 193.0, 0.0, 1.0, 1.0, 0.0, 0.0, 1.0, 1.0, 256.0, 1.0, 1.606468446687128E9, 2020-11-27 14:59:06.687
80.0, -33497.53125, 14094.16015625, -33388.18359375, 36869.55859375, 603.944091796875, -2524.204833984375, 23270.82421875, 33044.7734375, 0.0, 0.0, 0.0, 193.0, 0.0, 1.0, 1.0, 0.0, 0.0, 1.0, 1.0, 256.0, 1.0, 1.606468446687131E9, 2020-11-27 14:59:06.687
81.0, -33592.5703125, 14004.126953125, -33484.90234375, 36872.44140625, 534.02783203125, -2618.57373046875, 23210.921875, 33003.890625, 0.0, 0.0, 0.0, 193.0, 0.0, 1.0, 1.0, 0.0, 0.0, 1.0, 1.0, 256.0, 1.0, 1.606468446687135E9, 2020-11-27 14:59:06.687
82.0, -33669.70703125, 13914.787109375, -33636.265625, 36902.34765625, 506.33404541015625, -2696.8720703125, 23106.115234375, 32953.8671875, 0.0, 0.0, 0.0, 193.0, 0.0, 1.0, 1.0, 0.0, 0.0, 1.0, 1.0, 256.0, 1.0, 1.606468446687139E9, 2020-11-27 14:59:06.687
83.0, -33603.58984375, 13925.5166015625, -33571.73828125, 36970.4765625, 546.6342163085938, -2669.401611328125, 23121.224609375, 32998.68359375, 0.0, 0.0, 0.0, 193.0, 0.0, 1.0, 1.0, 0.0, 0.0, 1.0, 1.0, 256.0, 1.0, 1.606468446687142E9, 2020-11-27 14:59:06.687
84.0, -33447.9296875, 14149.0341796875, -33374.75, 37087.0859375, 637.0917358398438, -2537.280517578125, 23274.4453125, 33078.63671875, 0.0, 0.0, 0.0, 193.0, 0.0, 1.0, 1.0, 0.0, 0.0, 1.0, 1.0, 256.0, 1.0, 1.606468446687146E9, 2020-11-27 14:59:06.687
85.0, -33498.78125, 14097.177734375, -33480.09375, 36929.70703125, 624.0159912109375, -2516.62744140625, 23286.515625, 33040.4140625, 0.0, 0.0, 0.0, 193.0, 0.0, 1.0, 1.0, 0.0, 0.0, 1.0, 1.0, 256.0, 1.0, 1.60646844668715E9, 2020-11-27 14:59:06.687
86.0, -33585.1953125, 13960.18359375, -33544.58203125, 36756.859375, 564.11328125, -2568.03662109375, 23223.08203125, 33011.22265625, 0.0, 0.0, 0.0, 193.0, 0.0, 1.0, 1.0, 0.0, 0.0, 1.0, 1.0, 256.0, 1.0, 1.606468446687154E9, 2020-11-27 14:59:06.687
87.0, -33710.38671875, 13880.1650390625, -33679.921875, 36889.296875, 492.2077331542969, -2668.507568359375, 23133.451171875, 32955.3203125, 0.0, 0.0, 0.0, 193.0, 0.0, 1.0, 1.0, 0.0, 0.0, 1.0, 1.0, 256.0, 1.0, 1.606468446687158E9, 2020-11-27 14:59:06.687
88.0, -33709.828125, 13907.634765625, -33644.046875, 37034.1328125, 522.8966674804688, -2682.36572265625, 23117.58203125, 32986.6796875, 0.0, 0.0, 0.0, 193.0, 0.0, 1.0, 1.0, 0.0, 0.0, 1.0, 1.0, 256.0, 1.0, 1.606468446687162E9, 2020-11-27 14:59:06.687
89.0, -33516.37109375, 14108.30859375, -33428.46484375, 37073.921875, 633.537841796875, -2557.173583984375, 23259.11328125, 33075.39453125, 0.0, 0.0, 0.0, 193.0, 0.0, 1.0, 1.0, 0.0, 0.0, 1.0, 1.0, 256.0, 1.0, 1.606468446687166E9, 2020-11-27 14:59:06.687
90.0, -33526.38671875, 14088.9296875, -33465.1640625, 36993.3203125, 590.2424926757812, -2586.253173828125, 23246.39453125, 33038.06640625, 0.0, 0.0, 0.0, 193.0, 0.0, 1.0, 1.0, 0.0, 0.0, 1.0, 1.0, 256.0, 1.0, 1.60646844668717E9, 2020-11-27 14:59:06.687
91.0, -33570.95703125, 13962.955078125, -33538.8359375, 36936.76953125, 546.0977783203125, -2630.6884765625, 23196.52734375, 33004.98828125, 0.0, 0.0, 0.0, 193.0, 0.0, 1.0, 1.0, 0.0, 0.0, 1.0, 1.0, 256.0, 1.0, 1.606468446747094E9, 2020-11-27 14:59:06.747
92.0, -33640.71484375, 13826.587890625, -33661.16796875, 36842.04296875, 502.8695373535156, -2688.489990234375, 23110.96484375, 32965.3125, 0.0, 0.0, 0.0, 193.0, 0.0, 1.0, 1.0, 0.0, 0.0, 1.0, 1.0, 256.0, 1.0, 1.606468446747112E9, 2020-11-27 14:59:06.747
93.0, -33728.71484375, 13859.3994140625, -33644.15625, 36821.1015625, 532.3961791992188, -2646.98291015625, 23120.912109375, 32997.92578125, 0.0, 0.0, 0.0, 193.0, 0.0, 1.0, 1.0, 0.0, 0.0, 1.0, 1.0, 256.0, 1.0, 1.606468446747116E9, 2020-11-27 14:59:06.747
94.0, -33509.84765625, 14104.5986328125, -33465.6328125, 36890.12109375, 642.076171875, -2532.318359375, 23288.349609375, 33091.0625, 0.0, 0.0, 0.0, 193.0, 0.0, 1.0, 1.0, 0.0, 0.0, 1.0, 1.0, 256.0, 1.0, 1.606468446747151E9, 2020-11-27 14:59:06.747
95.0, -33539.26171875, 14081.12890625, -33436.51171875, 36807.2421875, 595.651611328125, -2563.23095703125, 23251.267578125, 33045.2421875, 0.0, 0.0, 0.0, 193.0, 0.0, 1.0, 1.0, 0.0, 0.0, 1.0, 1.0, 256.0, 1.0, 1.606468446747171E9, 2020-11-27 14:59:06.747
96.0, -33662.640625, 13929.115234375, -33543.28515625, 36610.90625, 527.0988159179688, -2624.0947265625, 23166.107421875, 32992.71484375, 0.0, 0.0, 0.0, 193.0, 0.0, 1.0, 1.0, 0.0, 0.0, 1.0, 1.0, 256.0, 1.0, 1.606468446747175E9, 2020-11-27 14:59:06.747
97.0, -33768.43359375, 13820.7763671875, -33680.5234375, 36773.58203125, 492.8335876464844, -2696.491943359375, 23098.962890625, 32962.5859375, 0.0, 0.0, 0.0, 193.0, 0.0, 1.0, 1.0, 0.0, 0.0, 1.0, 1.0, 256.0, 1.0, 1.606468446747179E9, 2020-11-27 14:59:06.747
98.0, -33716.15234375, 13892.0107421875, -33695.8359375, 36915.15625, 505.9540710449219, -2678.722412109375, 23117.916015625, 32985.8984375, 0.0, 0.0, 0.0, 193.0, 0.0, 1.0, 1.0, 0.0, 0.0, 1.0, 1.0, 256.0, 1.0, 1.606468446747183E9, 2020-11-27 14:59:06.747
99.0, -33503.69921875, 14050.9990234375, -33545.5859375, 36991.62109375, 600.747802734375, -2587.661376953125, 23237.54296875, 33059.63671875, 0.0, 0.0, 0.0, 193.0, 0.0, 1.0, 1.0, 0.0, 0.0, 1.0, 1.0, 256.0, 1.0, 1.606468446747187E9, 2020-11-27 14:59:06.747
100.0, -33496.01171875, 14007.234375, -33566.484375, 36924.3671875, 590.8683471679688, -2610.5048828125, 23221.248046875, 33027.5859375, 0.0, 0.0, 0.0, 193.0, 0.0, 1.0, 1.0, 0.0, 0.0, 1.0, 1.0, 256.0, 1.0, 1.606468446747191E9, 2020-11-27 14:59:06.747
101.0, -33596.50390625, 13931.2607421875, -33621.1796875, 36814.5078125, 565.7896728515625, -2645.99951171875, 23159.40234375, 32980.37890625, 0.0, 0.0, 0.0, 193.0, 0.0, 1.0, 1.0, 0.0, 0.0, 1.0, 1.0, 256.0, 1.0, 1.606468446747195E9, 2020-11-27 14:59:06.747
102.0, -33723.21484375, 13834.544921875, -33684.4140625, 36682.98828125, 458.7919006347656, -2721.12353515625, 23081.326171875, 32946.73828125, 0.0, 0.0, 0.0, 193.0, 0.0, 1.0, 1.0, 0.0, 0.0, 1.0, 1.0, 256.0, 1.0, 1.606468446747199E9, 2020-11-27 14:59:06.747
103.0, -33710.83203125, 13870.798828125, -33626.92578125, 36648.65625, 456.7802429199219, -2690.8818359375, 23096.16796875, 32992.6484375, 0.0, 0.0, 0.0, 193.0, 0.0, 1.0, 1.0, 0.0, 0.0, 1.0, 1.0, 256.0, 1.0, 1.606468446747203E9, 2020-11-27 14:59:06.747
104.0, -33555.17578125, 14066.265625, -33479.46875, 36795.88671875, 564.8062133789062, -2583.884033203125, 23222.142578125, 33074.234375, 0.0, 0.0, 0.0, 193.0, 0.0, 1.0, 1.0, 0.0, 0.0, 1.0, 1.0, 256.0, 1.0, 1.606468446747207E9, 2020-11-27 14:59:06.747
105.0, -33560.62890625, 14019.572265625, -33549.4296875, 36896.78515625, 567.5331420898438, -2635.225830078125, 23233.630859375, 33038.3125, 0.0, 0.0, 0.0, 193.0, 0.0, 1.0, 1.0, 0.0, 0.0, 1.0, 1.0, 256.0, 1.0, 1.606468446747211E9, 2020-11-27 14:59:06.747
106.0, -33624.30859375, 13932.2216796875, -33636.6015625, 36914.53125, 520.3262329101562, -2705.052734375, 23134.009765625, 32970.921875, 0.0, 0.0, 0.0, 193.0, 0.0, 1.0, 1.0, 0.0, 0.0, 1.0, 1.0, 256.0, 1.0, 1.606468446807175E9, 2020-11-27 14:59:06.807
107.0, -33728.24609375, 13825.783203125, -33734.97265625, 36860.59765625, 455.5732421875, -2735.361572265625, 23062.73046875, 32939.40625, 0.0, 0.0, 0.0, 193.0, 0.0, 1.0, 1.0, 0.0, 0.0, 1.0, 1.0, 256.0, 1.0, 1.606468446807257E9, 2020-11-27 14:59:06.807
108.0, -33709.78125, 13854.125, -33714.8125, 36795.08203125, 475.5556945800781, -2721.414306640625, 23073.32421875, 32981.359375, 0.0, 0.0, 0.0, 193.0, 0.0, 1.0, 1.0, 0.0, 0.0, 1.0, 1.0, 256.0, 1.0, 1.606468446807261E9, 2020-11-27 14:59:06.807
109.0, -33526.140625, 14046.5732421875, -33512.68359375, 36839.00390625, 578.21728515625, -2618.21630859375, 23214.8125, 33063.81640625, 0.0, 0.0, 0.0, 193.0, 0.0, 1.0, 1.0, 0.0, 0.0, 1.0, 1.0, 256.0, 1.0, 1.606468446807265E9, 2020-11-27 14:59:06.807
110.0, -33535.28125, 14023.4169921875, -33520.73046875, 36738.7578125, 536.4641723632812, -2644.233642578125, 23195.9921875, 33013.90625, 0.0, 0.0, 0.0, 193.0, 0.0, 1.0, 1.0, 0.0, 0.0, 1.0, 1.0, 256.0, 1.0, 1.606468446807269E9, 2020-11-27 14:59:06.807
111.0, -33621.15625, 13954.9755859375, -33596.21484375, 36657.28515625, 489.81610107421875, -2687.394775390625, 23133.80859375, 32971.48046875, 0.0, 0.0, 0.0, 193.0, 0.0, 1.0, 1.0, 0.0, 0.0, 1.0, 1.0, 256.0, 1.0, 1.606468446807272E9, 2020-11-27 14:59:06.807
112.0, -33736.8046875, 13839.3505859375, -33702.7421875, 36744.96875, 447.83953857421875, -2727.53857421875, 23070.486328125, 32940.2578125, 0.0, 0.0, 0.0, 193.0, 0.0, 1.0, 1.0, 0.0, 0.0, 1.0, 1.0, 256.0, 1.0, 1.606468446807276E9, 2020-11-27 14:59:06.807
113.0, -33713.87109375, 13847.083984375, -33709.46875, 36795.59765625, 450.3429260253906, -2738.021484375, 23071.9609375, 32973.1796875, 0.0, 0.0, 0.0, 193.0, 0.0, 1.0, 1.0, 0.0, 0.0, 1.0, 1.0, 256.0, 1.0, 1.60646844680728E9, 2020-11-27 14:59:06.807
114.0, -33507.72265625, 14038.638671875, -33533.359375, 36884.48828125, 529.9375, -2686.6796875, 23165.861328125, 33039.921875, 0.0, 0.0, 0.0, 193.0, 0.0, 1.0, 1.0, 0.0, 0.0, 1.0, 1.0, 256.0, 1.0, 1.606468446807284E9, 2020-11-27 14:59:06.807
115.0, -33517.625, 14035.375, -33531.8828125, 36820.7890625, 512.994873046875, -2705.321044921875, 23140.783203125, 33008.3828125, 0.0, 0.0, 0.0, 193.0, 0.0, 1.0, 1.0, 0.0, 0.0, 1.0, 1.0, 256.0, 1.0, 1.606468446807288E9, 2020-11-27 14:59:06.807
116.0, -33598.73828125, 13966.1962890625, -33592.45703125, 36721.9921875, 436.9765930175781, -2734.2216796875, 23112.529296875, 32966.609375, 0.0, 0.0, 0.0, 193.0, 0.0, 1.0, 1.0, 0.0, 0.0, 1.0, 1.0, 256.0, 1.0, 1.606468446807292E9, 2020-11-27 14:59:06.807
117.0, -33683.38671875, 13858.6845703125, -33718.43359375, 36718.75, 380.6278381347656, -2812.229248046875, 23002.0234375, 32902.03515625, 0.0, 0.0, 0.0, 193.0, 0.0, 1.0, 1.0, 0.0, 0.0, 1.0, 1.0, 256.0, 1.0, 1.60646844680733E9, 2020-11-27 14:59:06.807
118.0, -33663.26953125, 13869.279296875, -33722.45703125, 36795.57421875, 436.61895751953125, -2797.9912109375, 22996.166015625, 32933.8203125, 0.0, 0.0, 0.0, 193.0, 0.0, 1.0, 1.0, 0.0, 0.0, 1.0, 1.0, 256.0, 1.0, 1.606468446807335E9, 2020-11-27 14:59:06.807
119.0, -33466.953125, 14082.0009765625, -33513.109375, 36942.8046875, 528.9540405273438, -2698.302490234375, 23144.783203125, 33027.40625, 0.0, 0.0, 0.0, 193.0, 0.0, 1.0, 1.0, 0.0, 0.0, 1.0, 1.0, 256.0, 1.0, 1.606468446807339E9, 2020-11-27 14:59:06.807
120.0, -33477.01171875, 14069.0810546875, -33514.25, 36904.1796875, 471.59942626953125, -2712.96533203125, 23179.853515625, 33010.55078125, 0.0, 0.0, 0.0, 193.0, 0.0, 1.0, 1.0, 0.0, 0.0, 1.0, 1.0, 256.0, 1.0, 1.606468446807343E9, 2020-11-27 14:59:06.807
121.0, -33533.359375, 13993.3095703125, -33590.84765625, 36860.796875, 476.1815490722656, -2739.675537109375, 23113.669921875, 32954.5625, 0.0, 0.0, 0.0, 193.0, 0.0, 1.0, 1.0, 0.0, 0.0, 1.0, 1.0, 256.0, 1.0, 1.606468446867095E9, 2020-11-27 14:59:06.867
122.0, -33630.3671875, 13907.791015625, -33669.03515625, 36801.56640625, 430.24871826171875, -2768.643310546875, 23020.552734375, 32907.0625, 0.0, 0.0, 0.0, 193.0, 0.0, 1.0, 1.0, 0.0, 0.0, 1.0, 1.0, 256.0, 1.0, 1.606468446867116E9, 2020-11-27 14:59:06.867
123.0, -33618.33984375, 13932.7138671875, -33641.4765625, 36715.35546875, 437.133056640625, -2733.640625, 23065.078125, 32957.84765625, 0.0, 0.0, 0.0, 193.0, 0.0, 1.0, 1.0, 0.0, 0.0, 1.0, 1.0, 256.0, 1.0, 1.60646844686712E9, 2020-11-27 14:59:06.867
124.0, -33410.53515625, 14130.861328125, -33459.48828125, 36943.34375, 561.6769409179688, -2648.748779296875, 23201.421875, 33048.05859375, 0.0, 0.0, 0.0, 193.0, 0.0, 1.0, 1.0, 0.0, 0.0, 1.0, 1.0, 256.0, 1.0, 1.606468446867124E9, 2020-11-27 14:59:06.867
125.0, -33424.70703125, 14101.916015625, -33485.34765625, 36888.1796875, 540.6216430664062, -2674.319091796875, 23165.369140625, 33017.8828125, 0.0, 0.0, 0.0, 193.0, 0.0, 1.0, 1.0, 0.0, 0.0, 1.0, 1.0, 256.0, 1.0, 1.606468446867128E9, 2020-11-27 14:59:06.867
126.0, -33513.421875, 14021.9189453125, -33559.109375, 36762.515625, 475.3321838378906, -2692.53564453125, 23113.40234375, 32984.109375, 0.0, 0.0, 0.0, 193.0, 0.0, 1.0, 1.0, 0.0, 0.0, 1.0, 1.0, 256.0, 1.0, 1.606468446867132E9, 2020-11-27 14:59:06.867
127.0, -33616.5078125, 13916.6650390625, -33675.49609375, 36787.70703125, 405.46063232421875, -2773.650146484375, 23041.2734375, 32951.58984375, 0.0, 0.0, 0.0, 193.0, 0.0, 1.0, 1.0, 0.0, 0.0, 1.0, 1.0, 256.0, 1.0, 1.606468446867136E9, 2020-11-27 14:59:06.867
128.0, -33619.4140625, 13914.0498046875, -33689.375, 36971.75, 396.452880859375, -2835.3857421875, 23005.509765625, 32971.14453125, 0.0, 0.0, 0.0, 193.0, 0.0, 1.0, 1.0, 0.0, 0.0, 1.0, 1.0, 256.0, 1.0, 1.60646844686714E9, 2020-11-27 14:59:06.867
129.0, -33446.74609375, 14102.005859375, -33506.984375, 37013.05859375, 465.5868225097656, -2762.876708984375, 23092.2578125, 33017.75, 0.0, 0.0, 0.0, 193.0, 0.0, 1.0, 1.0, 0.0, 0.0, 1.0, 1.0, 256.0, 1.0, 1.606468446867144E9, 2020-11-27 14:59:06.867
130.0, -33456.515625, 14090.5615234375, -33513.890625, 36964.15234375, 421.1739196777344, -2764.150634765625, 23096.638671875, 32982.41015625, 0.0, 0.0, 0.0, 193.0, 0.0, 1.0, 1.0, 0.0, 0.0, 1.0, 1.0, 256.0, 1.0, 1.606468446867148E9, 2020-11-27 14:59:06.867
131.0, -33540.1328125, 14000.3720703125, -33597.64453125, 36879.4375, 403.98541259765625, -2783.283935546875, 23053.9453125, 32939.51953125, 0.0, 0.0, 0.0, 193.0, 0.0, 1.0, 1.0, 0.0, 0.0, 1.0, 1.0, 256.0, 1.0, 1.606468446867152E9, 2020-11-27 14:59:06.867
132.0, -33640.08984375, 13892.8603515625, -33702.78515625, 36733.59375, 352.3081970214844, -2837.86669921875, 22988.0078125, 32896.19921875, 0.0, 0.0, 0.0, 193.0, 0.0, 1.0, 1.0, 0.0, 0.0, 1.0, 1.0, 256.0, 1.0, 1.606468446867156E9, 2020-11-27 14:59:06.867
133.0, -33638.63671875, 13901.9130859375, -33698.11328125, 36776.0390625, 351.1682434082031, -2826.758056640625, 22979.40234375, 32923.5390625, 0.0, 0.0, 0.0, 193.0, 0.0, 1.0, 1.0, 0.0, 0.0, 1.0, 1.0, 256.0, 1.0, 1.60646844686716E9, 2020-11-27 14:59:06.867
134.0, -33441.25, 14115.640625, -33477.63671875, 36921.1484375, 467.4867248535156, -2693.318115234375, 23164.251953125, 33041.53125, 0.0, 0.0, 0.0, 193.0, 0.0, 1.0, 1.0, 0.0, 0.0, 1.0, 1.0, 256.0, 1.0, 1.606468446867165E9, 2020-11-27 14:59:06.867
135.0, -33434.1640625, 14108.64453125, -33494.98046875, 36965.0, 470.8618469238281, -2721.0341796875, 23140.513671875, 33000.09375, 0.0, 0.0, 0.0, 193.0, 0.0, 1.0, 1.0, 0.0, 0.0, 1.0, 1.0, 256.0, 1.0, 1.606468446867169E9, 2020-11-27 14:59:06.867
136.0, -33512.05859375, 14012.576171875, -33601.6015625, 36864.26171875, 400.3420715332031, -2794.32568359375, 23015.03125, 32930.1328125, 0.0, 0.0, 0.0, 193.0, 0.0, 1.0, 1.0, 0.0, 0.0, 1.0, 1.0, 256.0, 1.0, 1.60646844692709E9, 2020-11-27 14:59:06.927
137.0, -33617.78125, 13904.6396484375, -33701.66796875, 36749.73046875, 330.6940612792969, -2843.85693359375, 22945.49609375, 32892.58203125, 0.0, 0.0, 0.0, 193.0, 0.0, 1.0, 1.0, 0.0, 0.0, 1.0, 1.0, 256.0, 1.0, 1.606468446927107E9, 2020-11-27 14:59:06.927
138.0, -33623.81640625, 13906.986328125, -33699.3671875, 36792.2890625, 351.4588317871094, -2833.10595703125, 22973.2109375, 32934.87109375, 0.0, 0.0, 0.0, 193.0, 0.0, 1.0, 1.0, 0.0, 0.0, 1.0, 1.0, 256.0, 1.0, 1.606468446927112E9, 2020-11-27 14:59:06.927
139.0, -33432.6640625, 14114.4111328125, -33492.41015625, 36891.46484375, 472.0911865234375, -2701.74462890625, 23107.1875, 33022.84765625, 0.0, 0.0, 0.0, 193.0, 0.0, 1.0, 1.0, 0.0, 0.0, 1.0, 1.0, 256.0, 1.0, 1.606468446927145E9, 2020-11-27 14:59:06.927
140.0, -33445.96484375, 14107.392578125, -33497.12890625, 36857.04296875, 463.32928466796875, -2722.21875, 23112.73046875, 32979.57421875, 0.0, 0.0, 0.0, 193.0, 0.0, 1.0, 1.0, 0.0, 0.0, 1.0, 1.0, 256.0, 1.0, 1.606468446927193E9, 2020-11-27 14:59:06.927
141.0, -33504.4140625, 14023.349609375, -33596.5703125, 37062.72265625, 389.4120788574219, -2822.71240234375, 23037.451171875, 32930.0625, 0.0, 0.0, 0.0, 193.0, 0.0, 1.0, 1.0, 0.0, 0.0, 1.0, 1.0, 256.0, 1.0, 1.606468446927198E9, 2020-11-27 14:59:06.927
142.0, -33587.3828125, 13919.34765625, -33698.26953125, 37007.8046875, 354.4539489746094, -2855.68115234375, 22971.177734375, 32895.75390625, 0.0, 0.0, 0.0, 193.0, 0.0, 1.0, 1.0, 0.0, 0.0, 1.0, 1.0, 256.0, 1.0, 1.606468446927202E9, 2020-11-27 14:59:06.927
143.0, -33605.265625, 13902.76171875, -33716.64453125, 36801.96875, 331.4540100097656, -2840.213623046875, 22959.666015625, 32915.4921875, 0.0, 0.0, 0.0, 193.0, 0.0, 1.0, 1.0, 0.0, 0.0, 1.0, 1.0, 256.0, 1.0, 1.606468446927206E9, 2020-11-27 14:59:06.927
144.0, -33441.11328125, 14089.8466796875, -33525.2890625, 36771.3671875, 457.8307800292969, -2713.14404296875, 23088.658203125, 33000.65234375, 0.0, 0.0, 0.0, 193.0, 0.0, 1.0, 1.0, 0.0, 0.0, 1.0, 1.0, 256.0, 1.0, 1.60646844692721E9, 2020-11-27 14:59:06.927
145.0, -33451.796875, 14098.5634765625, -33518.71875, 37059.6171875, 427.4324035644531, -2768.53173828125, 23103.521484375, 32971.9296875, 0.0, 0.0, 0.0, 193.0, 0.0, 1.0, 1.0, 0.0, 0.0, 1.0, 1.0, 256.0, 1.0, 1.606468446927214E9, 2020-11-27 14:59:06.927
146.0, -33510.16015625, 14031.84375, -33584.546875, 37128.546875, 412.2108459472656, -2794.8173828125, 23061.298828125, 32945.0625, 0.0, 0.0, 0.0, 193.0, 0.0, 1.0, 1.0, 0.0, 0.0, 1.0, 1.0, 256.0, 1.0, 1.606468446927219E9, 2020-11-27 14:59:06.927
147.0, -33609.15625, 13930.0537109375, -33675.8515625, 36958.18359375, 371.2177734375, -2794.571533203125, 22989.908203125, 32917.58984375, 0.0, 0.0, 0.0, 193.0, 0.0, 1.0, 1.0, 0.0, 0.0, 1.0, 1.0, 256.0, 1.0, 1.606468446927224E9, 2020-11-27 14:59:06.927
148.0, -33633.046875, 13913.71484375, -33693.0625, 36811.109375, 348.03900146484375, -2805.412109375, 22965.322265625, 32931.58203125, 0.0, 0.0, 0.0, 193.0, 0.0, 1.0, 1.0, 0.0, 0.0, 1.0, 1.0, 256.0, 1.0, 1.606468446927228E9, 2020-11-27 14:59:06.927
149.0, -33439.39453125, 14107.1015625, -33509.46484375, 36833.90625, 462.65875244140625, -2699.285888671875, 23102.359375, 33019.62890625, 0.0, 0.0, 0.0, 193.0, 0.0, 1.0, 1.0, 0.0, 0.0, 1.0, 1.0, 256.0, 1.0, 1.606468446927232E9, 2020-11-27 14:59:06.927
150.0, -33422.96484375, 14107.7724609375, -33519.32421875, 37045.84765625, 454.18743896484375, -2739.005126953125, 23104.080078125, 32979.796875, 0.0, 0.0, 0.0, 193.0, 0.0, 1.0, 1.0, 0.0, 0.0, 1.0, 1.0, 256.0, 1.0, 1.606468446927237E9, 2020-11-27 14:59:06.927
151.0, -33485.16796875, 14027.5966796875, -33595.4296875, 37047.1875, 427.2088623046875, -2784.848388671875, 23039.328125, 32934.3125, 0.0, 0.0, 0.0, 193.0, 0.0, 1.0, 1.0, 0.0, 0.0, 1.0, 1.0, 256.0, 1.0, 1.606468446986079E9, 2020-11-27 14:59:06.986
152.0, -33598.8046875, 13924.845703125, -33688.48046875, 36920.41015625, 346.98846435546875, -2833.552978515625, 22966.55078125, 32898.28125, 0.0, 0.0, 0.0, 193.0, 0.0, 1.0, 1.0, 0.0, 0.0, 1.0, 1.0, 256.0, 1.0, 1.606468446986097E9, 2020-11-27 14:59:06.986
153.0, -33640.04296875, 13917.2685546875, -33696.08203125, 36920.41015625, 320.188720703125, -2827.115478515625, 22977.458984375, 32925.4609375, 0.0, 0.0, 0.0, 193.0, 0.0, 1.0, 1.0, 0.0, 0.0, 1.0, 1.0, 256.0, 1.0, 1.606468446986102E9, 2020-11-27 14:59:06.986
154.0, -33432.30859375, 14116.646484375, -33513.2890625, 37036.83984375, 470.4818420410156, -2716.787353515625, 23120.822265625, 33020.9921875, 0.0, 0.0, 0.0, 193.0, 0.0, 1.0, 1.0, 0.0, 0.0, 1.0, 1.0, 256.0, 1.0, 1.606468446986106E9, 2020-11-27 14:59:06.986
155.0, -33410.6484375, 14115.55078125, -33509.46484375, 37035.33984375, 498.04156494140625, -2701.901123046875, 23134.45703125, 32990.2578125, 0.0, 0.0, 0.0, 193.0, 0.0, 1.0, 1.0, 0.0, 0.0, 1.0, 1.0, 256.0, 1.0, 1.60646844698611E9, 2020-11-27 14:59:06.986
156.0, -33496.703125, 14036.6943359375, -33578.19921875, 37009.59375, 402.0184631347656, -2745.10693359375, 23071.55859375, 32946.76171875, 0.0, 0.0, 0.0, 193.0, 0.0, 1.0, 1.0, 0.0, 0.0, 1.0, 1.0, 256.0, 1.0, 1.606468446986115E9, 2020-11-27 14:59:06.986
157.0, -33605.8671875, 13934.5458984375, -33670.7109375, 36926.0625, 360.4889221191406, -2801.88037109375, 22990.310546875, 32907.95703125, 0.0, 0.0, 0.0, 193.0, 0.0, 1.0, 1.0, 0.0, 0.0, 1.0, 1.0, 256.0, 1.0, 1.606468446986119E9, 2020-11-27 14:59:06.986
158.0, -33618.36328125, 13905.779296875, -33708.88671875, 36898.59375, 335.11968994140625, -2839.230224609375, 22946.232421875, 32914.88671875, 0.0, 0.0, 0.0, 193.0, 0.0, 1.0, 1.0, 0.0, 0.0, 1.0, 1.0, 256.0, 1.0, 1.606468446986123E9, 2020-11-27 14:59:06.986
159.0, -33416.66015625, 14101.8935546875, -33533.42578125, 37012.38671875, 449.6723937988281, -2757.579345703125, 23073.302734375, 33002.3046875, 0.0, 0.0, 0.0, 193.0, 0.0, 1.0, 1.0, 0.0, 0.0, 1.0, 1.0, 256.0, 1.0, 1.606468446986127E9, 2020-11-27 14:59:06.986
160.0, -33413.01953125, 14112.6005859375, -33524.3515625, 37074.79296875, 468.5596008300781, -2749.2421875, 23087.943359375, 32986.92578125, 0.0, 0.0, 0.0, 193.0, 0.0, 1.0, 1.0, 0.0, 0.0, 1.0, 1.0, 256.0, 1.0, 1.606468446986132E9, 2020-11-27 14:59:06.986
161.0, -33501.12890625, 14039.599609375, -33587.36328125, 37040.86328125, 417.2176513671875, -2781.585205078125, 23044.71484375, 32944.4140625, 0.0, 0.0, 0.0, 193.0, 0.0, 1.0, 1.0, 0.0, 0.0, 1.0, 1.0, 256.0, 1.0, 1.606468446986136E9, 2020-11-27 14:59:06.986
162.0, -33587.98828125, 13938.3681640625, -33685.6640625, 36988.76171875, 367.0826721191406, -2837.375, 22969.880859375, 32904.1796875, 0.0, 0.0, 0.0, 193.0, 0.0, 1.0, 1.0, 0.0, 0.0, 1.0, 1.0, 256.0, 1.0, 1.606468446986141E9, 2020-11-27 14:59:06.986
163.0, -33613.8046875, 13905.66796875, -33717.8515625, 36948.86328125, 370.90484619140625, -2829.417724609375, 22952.46875, 32914.6875, 0.0, 0.0, 0.0, 193.0, 0.0, 1.0, 1.0, 0.0, 0.0, 1.0, 1.0, 256.0, 1.0, 1.606468446986192E9, 2020-11-27 14:59:06.986
164.0, -33439.19140625, 14106.9453125, -33518.7421875, 37059.63671875, 463.6869201660156, -2726.979736328125, 23092.16796875, 33005.546875, 0.0, 0.0, 0.0, 193.0, 0.0, 1.0, 1.0, 0.0, 0.0, 1.0, 1.0, 256.0, 1.0, 1.606468446986196E9, 2020-11-27 14:59:06.986
165.0, -33418.96484375, 14125.2509765625, -33491.203125, 37043.703125, 474.1698913574219, -2703.823486328125, 23130.455078125, 32991.2421875, 0.0, 0.0, 0.0, 193.0, 0.0, 1.0, 1.0, 0.0, 0.0, 1.0, 1.0, 256.0, 1.0, 1.606468446986201E9, 2020-11-27 14:59:06.986
166.0, -33491.18359375, 14044.2490234375, -33560.5625, 36883.52734375, 409.5509948730469, -2719.849609375, 23087.40625, 32954.13671875, 0.0, 0.0, 0.0, 193.0, 0.0, 1.0, 1.0, 0.0, 0.0, 1.0, 1.0, 256.0, 1.0, 1.606468447047079E9, 2020-11-27 14:59:07.047
167.0, -33594.91796875, 13936.513671875, -33683.8984375, 36920.34375, 348.3295593261719, -2807.557861328125, 22993.171875, 32904.0703125, 0.0, 0.0, 0.0, 193.0, 0.0, 1.0, 1.0, 0.0, 0.0, 1.0, 1.0, 256.0, 1.0, 1.606468447047098E9, 2020-11-27 14:59:07.047
168.0, -33599.921875, 13912.2392578125, -33716.7578125, 37037.7109375, 375.59869384765625, -2818.465576171875, 22956.291015625, 32921.75, 0.0, 0.0, 0.0, 193.0, 0.0, 1.0, 1.0, 0.0, 0.0, 1.0, 1.0, 256.0, 1.0, 1.606468447047103E9, 2020-11-27 14:59:07.047
169.0, -33418.58203125, 14104.62109375, -33531.6171875, 37156.3984375, 484.6528625488281, -2731.51708984375, 23083.47265625, 33007.66796875, 0.0, 0.0, 0.0, 193.0, 0.0, 1.0, 1.0, 0.0, 0.0, 1.0, 1.0, 256.0, 1.0, 1.606468447047107E9, 2020-11-27 14:59:07.047
170.0, -33427.45703125, 14113.9189453125, -33523.94921875, 37129.3984375, 466.3467712402344, -2732.880615234375, 23088.994140625, 32977.29296875, 0.0, 0.0, 0.0, 193.0, 0.0, 1.0, 1.0, 0.0, 0.0, 1.0, 1.0, 256.0, 1.0, 1.606468447047111E9, 2020-11-27 14:59:07.047
171.0, -33512.26171875, 14030.546875, -33596.4375, 37055.5234375, 413.2390441894531, -2757.10986328125, 23048.40234375, 32939.7421875, 0.0, 0.0, 0.0, 193.0, 0.0, 1.0, 1.0, 0.0, 0.0, 1.0, 1.0, 256.0, 1.0, 1.606468447047115E9, 2020-11-27 14:59:07.047
172.0, -33587.609375, 13939.955078125, -33676.07421875, 36941.1953125, 353.671630859375, -2801.656982421875, 22985.37109375, 32901.296875, 0.0, 0.0, 0.0, 193.0, 0.0, 1.0, 1.0, 0.0, 0.0, 1.0, 1.0, 256.0, 1.0, 1.606468447047119E9, 2020-11-27 14:59:07.047
173.0, -33633.47265625, 13922.7666015625, -33695.5, 36914.5078125, 355.7950439453125, -2808.69775390625, 22979.0234375, 32920.49609375, 0.0, 0.0, 0.0, 193.0, 0.0, 1.0, 1.0, 0.0, 0.0, 1.0, 1.0, 256.0, 1.0, 1.606468447047123E9, 2020-11-27 14:59:07.047
174.0, -33441.09375, 14112.287109375, -33525.26953125, 37109.05859375, 486.39630126953125, -2699.15185546875, 23099.4765625, 33018.51171875, 0.0, 0.0, 0.0, 193.0, 0.0, 1.0, 1.0, 0.0, 0.0, 1.0, 1.0, 256.0, 1.0, 1.606468447047127E9, 2020-11-27 14:59:07.047
175.0, -33404.58984375, 14121.9208984375, -33516.9296875, 37074.74609375, 492.6324157714844, -2685.6513671875, 23117.89453125, 32994.81640625, 0.0, 0.0, 0.0, 193.0, 0.0, 1.0, 1.0, 0.0, 0.0, 1.0, 1.0, 256.0, 1.0, 1.606468447047131E9, 2020-11-27 14:59:07.047
176.0, -33483.5390625, 14043.1083984375, -33586.53515625, 37122.8046875, 441.04461669921875, -2741.486083984375, 23065.681640625, 32950.6953125, 0.0, 0.0, 0.0, 193.0, 0.0, 1.0, 1.0, 0.0, 0.0, 1.0, 1.0, 256.0, 1.0, 1.606468447047135E9, 2020-11-27 14:59:07.047
177.0, -33596.5703125, 13952.0478515625, -33668.9921875, 37175.98046875, 357.56085205078125, -2803.132080078125, 23000.748046875, 32916.05078125, 0.0, 0.0, 0.0, 193.0, 0.0, 1.0, 1.0, 0.0, 0.0, 1.0, 1.0, 256.0, 1.0, 1.606468447047139E9, 2020-11-27 14:59:07.047
178.0, -33634.76953125, 13911.7919921875, -33708.28515625, 37102.6640625, 356.1973876953125, -2800.29345703125, 22973.189453125, 32917.3671875, 0.0, 0.0, 0.0, 193.0, 0.0, 1.0, 1.0, 0.0, 0.0, 1.0, 1.0, 256.0, 1.0, 1.606468447047143E9, 2020-11-27 14:59:07.047
179.0, -33453.5625, 14111.5947265625, -33517.0859375, 37155.03515625, 464.67041015625, -2690.300537109375, 23097.95703125, 33006.8203125, 0.0, 0.0, 0.0, 193.0, 0.0, 1.0, 1.0, 0.0, 0.0, 1.0, 1.0, 256.0, 1.0, 1.606468447047147E9, 2020-11-27 14:59:07.047
180.0, -33423.76953125, 14147.3798828125, -33480.02734375, 37057.046875, 456.5790710449219, -2695.799072265625, 23115.615234375, 32987.6875, 0.0, 0.0, 0.0, 193.0, 0.0, 1.0, 1.0, 0.0, 0.0, 1.0, 1.0, 256.0, 1.0, 1.606468447047151E9, 2020-11-27 14:59:07.047
181.0, -33501.88671875, 14069.193359375, -33566.8203125, 37022.66796875, 395.8046875, -2766.72119140625, 23057.09765625, 32945.3984375, 0.0, 0.0, 0.0, 193.0, 0.0, 1.0, 1.0, 0.0, 0.0, 1.0, 1.0, 256.0, 1.0, 1.606468447107099E9, 2020-11-27 14:59:07.107
182.0, -33596.48046875, 13946.728515625, -33690.15625, 37025.28515625, 363.10406494140625, -2809.435302734375, 22984.4765625, 32908.16015625, 0.0, 0.0, 0.0, 193.0, 0.0, 1.0, 1.0, 0.0, 0.0, 1.0, 1.0, 256.0, 1.0, 1.606468447107118E9, 2020-11-27 14:59:07.107
183.0, -33618.56640625, 13900.83984375, -33729.71875, 37005.234375, 380.3149108886719, -2793.7890625, 22965.544921875, 32911.53515625, 0.0, 0.0, 0.0, 193.0, 0.0, 1.0, 1.0, 0.0, 0.0, 1.0, 1.0, 256.0, 1.0, 1.606468447107122E9, 2020-11-27 14:59:07.107
184.0, -33412.1015625, 14108.7783203125, -33523.7265625, 37084.47265625, 493.705322265625, -2667.14404296875, 23103.0078125, 33017.75, 0.0, 0.0, 0.0, 193.0, 0.0, 1.0, 1.0, 0.0, 0.0, 1.0, 1.0, 256.0, 1.0, 1.606468447107126E9, 2020-11-27 14:59:07.107
185.0, -33407.6328125, 14143.1103515625, -33491.13671875, 37144.3046875, 477.6343994140625, -2665.937255859375, 23132.736328125, 33003.46875, 0.0, 0.0, 0.0, 193.0, 0.0, 1.0, 1.0, 0.0, 0.0, 1.0, 1.0, 256.0, 1.0, 1.60646844710713E9, 2020-11-27 14:59:07.107
186.0, -33503.2734375, 14056.720703125, -33573.078125, 37086.9296875, 430.5392761230469, -2719.469482421875, 23081.728515625, 32950.91796875, 0.0, 0.0, 0.0, 193.0, 0.0, 1.0, 1.0, 0.0, 0.0, 1.0, 1.0, 256.0, 1.0, 1.606468447107133E9, 2020-11-27 14:59:07.107
187.0, -33586.9140625, 13952.8076171875, -33671.984375, 37060.33203125, 390.2614440917969, -2786.12255859375, 23000.5703125, 32907.9375, 0.0, 0.0, 0.0, 193.0, 0.0, 1.0, 1.0, 0.0, 0.0, 1.0, 1.0, 256.0, 1.0, 1.606468447107169E9, 2020-11-27 14:59:07.107
188.0, -33631.3515625, 13923.4375, -33699.72265625, 37069.78515625, 352.91168212890625, -2810.150634765625, 22954.771484375, 32916.65234375, 0.0, 0.0, 0.0, 193.0, 0.0, 1.0, 1.0, 0.0, 0.0, 1.0, 1.0, 256.0, 1.0, 1.606468447107173E9, 2020-11-27 14:59:07.107
189.0, -33448.37890625, 14126.81640625, -33508.4375, 37126.53515625, 438.8988342285156, -2701.431640625, 23097.822265625, 33007.84765625, 0.0, 0.0, 0.0, 193.0, 0.0, 1.0, 1.0, 0.0, 0.0, 1.0, 1.0, 256.0, 1.0, 1.606468447107177E9, 2020-11-27 14:59:07.107
190.0, -33401.484375, 14153.3251953125, -33496.3671875, 37199.828125, 460.3788757324219, -2698.615478515625, 23113.826171875, 32990.9296875, 0.0, 0.0, 0.0, 193.0, 0.0, 1.0, 1.0, 0.0, 0.0, 1.0, 1.0, 256.0, 1.0, 1.60646844710718E9, 2020-11-27 14:59:07.107
191.0, -33490.5546875, 14057.861328125, -33587.25, 37210.82421875, 403.851318359375, -2740.234375, 23051.93359375, 32948.953125, 0.0, 0.0, 0.0, 193.0, 0.0, 1.0, 1.0, 0.0, 0.0, 1.0, 1.0, 256.0, 1.0, 1.606468447107184E9, 2020-11-27 14:59:07.107
192.0, -33579.11328125, 13959.6474609375, -33675.33984375, 37097.703125, 384.9640808105469, -2755.12060546875, 22994.9375, 32914.39453125, 0.0, 0.0, 0.0, 193.0, 0.0, 1.0, 1.0, 0.0, 0.0, 1.0, 1.0, 256.0, 1.0, 1.606468447107201E9, 2020-11-27 14:59:07.107
193.0, -33621.5390625, 13924.1083984375, -33705.17578125, 37131.51953125, 372.067138671875, -2787.12841796875, 22969.970703125, 32920.83203125, 0.0, 0.0, 0.0, 193.0, 0.0, 1.0, 1.0, 0.0, 0.0, 1.0, 1.0, 256.0, 1.0, 1.606468447107205E9, 2020-11-27 14:59:07.107
194.0, -33429.24609375, 14123.6640625, -33512.57421875, 37276.203125, 466.8832092285156, -2700.090576171875, 23100.37109375, 33018.2421875, 0.0, 0.0, 0.0, 193.0, 0.0, 1.0, 1.0, 0.0, 0.0, 1.0, 1.0, 256.0, 1.0, 1.606468447107209E9, 2020-11-27 14:59:07.107
195.0, -33387.24609375, 14167.228515625, -33464.62890625, 37304.79296875, 467.8890380859375, -2688.512451171875, 23139.822265625, 33010.23828125, 0.0, 0.0, 0.0, 193.0, 0.0, 1.0, 1.0, 0.0, 0.0, 1.0, 1.0, 256.0, 1.0, 1.606468447107214E9, 2020-11-27 14:59:07.107
196.0, -33464.47265625, 14080.927734375, -33545.40625, 37146.2734375, 415.0495300292969, -2729.72900390625, 23080.388671875, 32959.234375, 0.0, 0.0, 0.0, 193.0, 0.0, 1.0, 1.0, 0.0, 0.0, 1.0, 1.0, 256.0, 1.0, 1.606468447167141E9, 2020-11-27 14:59:07.167
197.0, -33559.46484375, 13985.44140625, -33638.2578125, 36961.53515625, 369.563720703125, -2747.72216796875, 23010.875, 32917.97265625, 0.0, 0.0, 0.0, 193.0, 0.0, 1.0, 1.0, 0.0, 0.0, 1.0, 1.0, 256.0, 1.0, 1.606468447167159E9, 2020-11-27 14:59:07.167
198.0, -33611.703125, 13939.798828125, -33695.90234375, 36996.671875, 354.81158447265625, -2787.28466796875, 22957.677734375, 32913.58984375, 0.0, 0.0, 0.0, 193.0, 0.0, 1.0, 1.0, 0.0, 0.0, 1.0, 1.0, 256.0, 1.0, 1.606468447167163E9, 2020-11-27 14:59:07.167
199.0, -33425.625, 14119.931640625, -33533.671875, 37333.8046875, 456.6461181640625, -2717.14501953125, 23080.03125, 33007.15625, 0.0, 0.0, 0.0, 193.0, 0.0, 1.0, 1.0, 0.0, 0.0, 1.0, 1.0, 256.0, 1.0, 1.606468447167166E9, 2020-11-27 14:59:07.167
200.0, -33383.3125, 14153.4814453125, -33491.09375, 37423.0546875, 470.30303955078125, -2696.983642578125, 23115.7265625, 32993.5, 0.0, 0.0, 0.0, 193.0, 0.0, 1.0, 1.0, 0.0, 0.0, 1.0, 1.0, 256.0, 1.0, 1.60646844716717E9, 2020-11-27 14:59:07.167
201.0, -33481.21484375, 14072.5234375, -33559.37890625, 37280.5859375, 400.61029052734375, -2720.92236328125, 23074.21875, 32954.25, 0.0, 0.0, 0.0, 193.0, 0.0, 1.0, 1.0, 0.0, 0.0, 1.0, 1.0, 256.0, 1.0, 1.606468447167174E9, 2020-11-27 14:59:07.167
202.0, -33569.90625, 13978.9814453125, -33653.72265625, 37120.8359375, 359.93011474609375, -2765.11181640625, 23005.375, 32914.015625, 0.0, 0.0, 0.0, 193.0, 0.0, 1.0, 1.0, 0.0, 0.0, 1.0, 1.0, 256.0, 1.0, 1.606468447167178E9, 2020-11-27 14:59:07.167
203.0, -33607.859375, 13935.2841796875, -33695.609375, 37184.98828125, 355.8174133300781, -2799.220703125, 22959.599609375, 32922.21875, 0.0, 0.0, 0.0, 193.0, 0.0, 1.0, 1.0, 0.0, 0.0, 1.0, 1.0, 256.0, 1.0, 1.606468447167182E9, 2020-11-27 14:59:07.167
204.0, -33440.8671875, 14132.314453125, -33507.6328125, 37331.234375, 458.2778015136719, -2702.683349609375, 23087.98828125, 33019.515625, 0.0, 0.0, 0.0, 193.0, 0.0, 1.0, 1.0, 0.0, 0.0, 1.0, 1.0, 256.0, 1.0, 1.606468447167186E9, 2020-11-27 14:59:07.167
205.0, -33394.7578125, 14172.771484375, -33458.546875, 37295.3359375, 464.0445556640625, -2666.741943359375, 23135.73046875, 33003.48828125, 0.0, 0.0, 0.0, 193.0, 0.0, 1.0, 1.0, 0.0, 0.0, 1.0, 1.0, 256.0, 1.0, 1.606468447167189E9, 2020-11-27 14:59:07.167
206.0, -33467.66796875, 14080.4365234375, -33554.70703125, 37223.20703125, 427.1418151855469, -2699.33056640625, 23088.568359375, 32957.82421875, 0.0, 0.0, 0.0, 193.0, 0.0, 1.0, 1.0, 0.0, 0.0, 1.0, 1.0, 256.0, 1.0, 1.606468447167193E9, 2020-11-27 14:59:07.167
207.0, -33551.62109375, 13988.369140625, -33654.6640625, 37287.3125, 395.1788330078125, -2770.49853515625, 23011.58984375, 32916.5859375, 0.0, 0.0, 0.0, 193.0, 0.0, 1.0, 1.0, 0.0, 0.0, 1.0, 1.0, 256.0, 1.0, 1.606468447167197E9, 2020-11-27 14:59:07.167
208.0, -33598.0, 13939.84375, -33698.359375, 37262.234375, 370.5472106933594, -2798.259521484375, 22978.822265625, 32918.328125, 0.0, 0.0, 0.0, 193.0, 0.0, 1.0, 1.0, 0.0, 0.0, 1.0, 1.0, 256.0, 1.0, 1.606468447167201E9, 2020-11-27 14:59:07.167
209.0, -33407.609375, 14116.84765625, -33520.953125, 37234.5625, 457.920166015625, -2685.6513671875, 23076.41015625, 33008.0703125, 0.0, 0.0, 0.0, 193.0, 0.0, 1.0, 1.0, 0.0, 0.0, 1.0, 1.0, 256.0, 1.0, 1.606468447167205E9, 2020-11-27 14:59:07.167
210.0, -33366.63671875, 14161.259765625, -33475.08984375, 37183.69140625, 474.5051574707031, -2660.75146484375, 23130.814453125, 33000.984375, 0.0, 0.0, 0.0, 193.0, 0.0, 1.0, 1.0, 0.0, 0.0, 1.0, 1.0, 256.0, 1.0, 1.606468447167242E9, 2020-11-27 14:59:07.167
211.0, -33464.0703125, 14084.5712890625, -33556.875, 37208.0546875, 424.7054748535156, -2710.72998046875, 23071.8046875, 32959.6796875, 0.0, 0.0, 0.0, 193.0, 0.0, 1.0, 1.0, 0.0, 0.0, 1.0, 1.0, 256.0, 1.0, 1.606468447227095E9, 2020-11-27 14:59:07.227
212.0, -33562.28125, 13986.693359375, -33657.79296875, 37218.78125, 376.20220947265625, -2773.91845703125, 22997.6640625, 32917.61328125, 0.0, 0.0, 0.0, 193.0, 0.0, 1.0, 1.0, 0.0, 0.0, 1.0, 1.0, 256.0, 1.0, 1.606468447227119E9, 2020-11-27 14:59:07.227
213.0, -33611.81640625, 13949.25390625, -33689.48828125, 37361.18359375, 362.8358459472656, -2799.533447265625, 22971.3125, 32926.7578125, 0.0, 0.0, 0.0, 193.0, 0.0, 1.0, 1.0, 0.0, 0.0, 1.0, 1.0, 256.0, 1.0, 1.606468447227123E9, 2020-11-27 14:59:07.227
214.0, -33422.83203125, 14141.7470703125, -33501.0625, 37453.2734375, 444.26324462890625, -2704.918701171875, 23100.68359375, 33024.9453125, 0.0, 0.0, 0.0, 193.0, 0.0, 1.0, 1.0, 0.0, 0.0, 1.0, 1.0, 256.0, 1.0, 1.606468447227127E9, 2020-11-27 14:59:07.227
215.0, -33368.60546875, 14180.572265625, -33464.58203125, 37428.75390625, 471.2194519042969, -2689.719482421875, 23151.4453125, 33023.5390625, 0.0, 0.0, 0.0, 193.0, 0.0, 1.0, 1.0, 0.0, 0.0, 1.0, 1.0, 256.0, 1.0, 1.60646844722713E9, 2020-11-27 14:59:07.227
