%OpenBCI Raw EEG Data
%Number of channels = 8
%Sample Rate = 250 Hz
%Board = OpenBCI_GUI$BoardCytonSerial
Sample Index, EXG Channel 0, EXG Channel 1, EXG Channel 2, EXG Channel 3, EXG Channel 4, EXG Channel 5, EXG Channel 6, EXG Channel 7, Accel Channel 0, Accel Channel 1, Accel Channel 2, Other, Other, Other, Other, Other, Other, Other, Analog Channel 0, Analog Channel 1, Analog Channel 2, Timestamp, Timestamp (Formatted)
74.0, 39556.23828125, 32399.142578125, 28200.390625, 22826.896484375, 27670.765625, 32700.466796875, 33433.06640625, 26070.08984375, 0.0, 0.0, 0.0, 193.0, 0.0, 1.0, 1.0, 0.0, 0.0, 1.0, 1.0, 256.0, 1.0, 1.608195166855804E9, 2020-12-17 14:37:46.855
75.0, 39580.69140625, 32436.1796875, 28240.98046875, 22870.080078125, 27698.75, 32731.736328125, 33461.8125, 26098.142578125, 0.0, 0.0, 0.0, 193.0, 0.0, 1.0, 1.0, 0.0, 0.0, 1.0, 1.0, 256.0, 1.0, 1.608195166855808E9, 2020-12-17 14:37:46.855
76.0, 39673.18359375, 32558.15234375, 28371.26953125, 23003.9453125, 27762.318359375, 32841.73046875, 33562.86328125, 26200.625, 0.0, 0.0, 0.0, 193.0, 0.0, 1.0, 1.0, 0.0, 0.0, 1.0, 1.0, 256.0, 1.0, 1.608195166855812E9, 2020-12-17 14:37:46.855
77.0, 39704.140625, 32590.361328125, 28391.341796875, 22991.763671875, 27777.697265625, 32871.43359375, 33581.37109375, 26224.40625, 0.0, 0.0, 0.0, 193.0, 0.0, 1.0, 1.0, 0.0, 0.0, 1.0, 1.0, 256.0, 1.0, 1.608195166855816E9, 2020-12-17 14:37:46.855
78.0, 39640.1484375, 32504.8671875, 28304.548828125, 22874.126953125, 27738.447265625, 32816.33984375, 33520.1484375, 26154.7578125, 0.0, 0.0, 0.0, 193.0, 0.0, 1.0, 1.0, 0.0, 0.0, 1.0, 1.0, 256.0, 1.0, 1.608195166855819E9, 2020-12-17 14:37:46.855
79.0, 39574.05078125, 32422.455078125, 28237.8515625, 22768.626953125, 27713.61328125, 32767.8359375, 33477.68359375, 26101.29296875, 0.0, 0.0, 0.0, 193.0, 0.0, 1.0, 1.0, 0.0, 0.0, 1.0, 1.0, 256.0, 1.0, 1.608195166855823E9, 2020-12-17 14:37:46.855
80.0, 39593.1875, 32453.189453125, 28277.705078125, 22794.732421875, 27737.26171875, 32795.4609375, 33514.71875, 26139.603515625, 0.0, 0.0, 0.0, 193.0, 0.0, 1.0, 1.0, 0.0, 0.0, 1.0, 1.0, 256.0, 1.0, 1.608195166855827E9, 2020-12-17 14:37:46.855
81.0, 39672.421875, 32557.662109375, 28380.701171875, 22918.248046875, 27774.92578125, 32904.16015625, 33610.44921875, 26257.287109375, 0.0, 0.0, 0.0, 193.0, 0.0, 1.0, 1.0, 0.0, 0.0, 1.0, 1.0, 256.0, 1.0, 1.60819516685583E9, 2020-12-17 14:37:46.855
82.0, 39704.18359375, 32560.544921875, 28378.287109375, 22888.72265625, 27769.001953125, 32915.04296875, 33606.42578125, 26294.904296875, 0.0, 0.0, 0.0, 193.0, 0.0, 1.0, 1.0, 0.0, 0.0, 1.0, 1.0, 256.0, 1.0, 1.608195166855833E9, 2020-12-17 14:37:46.855
83.0, 39633.640625, 32490.740234375, 28301.77734375, 22822.806640625, 27697.587890625, 32818.6640625, 33533.31640625, 26217.052734375, 0.0, 0.0, 0.0, 193.0, 0.0, 1.0, 1.0, 0.0, 0.0, 1.0, 1.0, 256.0, 1.0, 1.608195166855837E9, 2020-12-17 14:37:46.855
84.0, 39540.19140625, 32421.337890625, 28232.93359375, 22845.962890625, 27619.84765625, 32715.64453125, 33465.12109375, 26118.59375, 0.0, 0.0, 0.0, 193.0, 0.0, 1.0, 1.0, 0.0, 0.0, 1.0, 1.0, 256.0, 1.0, 1.60819516685584E9, 2020-12-17 14:37:46.855
85.0, 39556.41796875, 32429.33984375, 28239.125, 22859.798828125, 27633.103515625, 32725.814453125, 33468.0703125, 26125.232421875, 0.0, 0.0, 0.0, 193.0, 0.0, 1.0, 1.0, 0.0, 0.0, 1.0, 1.0, 256.0, 1.0, 1.608195166855844E9, 2020-12-17 14:37:46.855
86.0, 39651.5, 32521.02734375, 28326.185546875, 22892.72265625, 27703.48828125, 32824.2734375, 33542.1875, 26218.283203125, 0.0, 0.0, 0.0, 193.0, 0.0, 1.0, 1.0, 0.0, 0.0, 1.0, 1.0, 256.0, 1.0, 1.608195166855847E9, 2020-12-17 14:37:46.855
87.0, 39683.0625, 32559.5390625, 28365.189453125, 22962.6171875, 27736.748046875, 32839.91796875, 33555.6875, 26240.03125, 0.0, 0.0, 0.0, 193.0, 0.0, 1.0, 1.0, 0.0, 0.0, 1.0, 1.0, 256.0, 1.0, 1.608195166855851E9, 2020-12-17 14:37:46.855
88.0, 39615.91796875, 32486.001953125, 28313.267578125, 22938.119140625, 27681.248046875, 32764.794921875, 33486.53125, 26155.072265625, 0.0, 0.0, 0.0, 193.0, 0.0, 1.0, 1.0, 0.0, 0.0, 1.0, 1.0, 256.0, 1.0, 1.608195166855855E9, 2020-12-17 14:37:46.855
89.0, 39545.53125, 32406.2734375, 28240.82421875, 22842.9453125, 27637.529296875, 32708.37890625, 33438.5, 26080.328125, 0.0, 0.0, 0.0, 193.0, 0.0, 1.0, 1.0, 0.0, 0.0, 1.0, 1.0, 256.0, 1.0, 1.608195166855858E9, 2020-12-17 14:37:46.855
90.0, 39563.48046875, 32424.310546875, 28255.197265625, 22856.46875, 27662.0703125, 32720.025390625, 33449.8984375, 26092.5546875, 0.0, 0.0, 0.0, 193.0, 0.0, 1.0, 1.0, 0.0, 0.0, 1.0, 1.0, 256.0, 1.0, 1.608195166855862E9, 2020-12-17 14:37:46.855
1.0, 39857.94140625, 32628.427734375, 28624.513671875, 23261.37109375, 27709.658203125, 33031.36328125, 33555.66796875, 26185.15625, 0.0, 0.0, 0.0, 193.0, 0.0, 1.0, 1.0, 0.0, 0.0, 1.0, 1.0, 256.0, 1.0, 1.608195167024932E9, 2020-12-17 14:37:47.024
2.0, 39773.33984375, 32547.625, 28549.255859375, 23158.798828125, 27620.7421875, 32944.703125, 33502.625, 26105.16015625, 0.0, 0.0, 0.0, 193.0, 0.0, 1.0, 1.0, 0.0, 0.0, 1.0, 1.0, 256.0, 1.0, 1.608195167024936E9, 2020-12-17 14:37:47.024
3.0, 39691.48828125, 32431.93359375, 28427.595703125, 23045.810546875, 27596.46875, 32815.2890625, 33396.2109375, 26043.537109375, 0.0, 0.0, 0.0, 193.0, 0.0, 1.0, 1.0, 0.0, 0.0, 1.0, 1.0, 256.0, 1.0, 1.608195167024938E9, 2020-12-17 14:37:47.024
4.0, 39714.53515625, 32459.671875, 28447.623046875, 23060.271484375, 27613.58984375, 32811.6875, 33406.6484375, 26040.4296875, 0.0, 0.0, 0.0, 193.0, 0.0, 1.0, 1.0, 0.0, 0.0, 1.0, 1.0, 256.0, 1.0, 1.608195167024941E9, 2020-12-17 14:37:47.024
5.0, 39845.53515625, 32590.09375, 28585.599609375, 23198.5625, 27730.265625, 32977.42578125, 33523.8828125, 26162.828125, 0.0, 0.0, 0.0, 193.0, 0.0, 1.0, 1.0, 0.0, 0.0, 1.0, 1.0, 256.0, 1.0, 1.608195167024943E9, 2020-12-17 14:37:47.024
6.0, 39897.83984375, 32650.689453125, 28658.130859375, 23275.564453125, 27800.115234375, 33109.703125, 33620.5546875, 26217.923828125, 0.0, 0.0, 0.0, 193.0, 0.0, 1.0, 1.0, 0.0, 0.0, 1.0, 1.0, 256.0, 1.0, 1.608195167024945E9, 2020-12-17 14:37:47.024
7.0, 39771.73046875, 32527.46484375, 28521.673828125, 23143.95703125, 27633.70703125, 32904.13671875, 33453.16015625, 26093.716796875, 0.0, 0.0, 0.0, 193.0, 0.0, 1.0, 1.0, 0.0, 0.0, 1.0, 1.0, 256.0, 1.0, 1.608195167024948E9, 2020-12-17 14:37:47.024
8.0, 39676.82421875, 32421.6953125, 28416.46484375, 23055.17578125, 27563.142578125, 32786.56640625, 33359.84375, 26013.16015625, 0.0, 0.0, 0.0, 193.0, 0.0, 1.0, 1.0, 0.0, 0.0, 1.0, 1.0, 256.0, 1.0, 1.608195167024961E9, 2020-12-17 14:37:47.024
9.0, 39728.48046875, 32475.8984375, 28483.67578125, 23124.599609375, 27628.990234375, 32891.55078125, 33447.91015625, 26056.611328125, 0.0, 0.0, 0.0, 193.0, 0.0, 1.0, 1.0, 0.0, 0.0, 1.0, 1.0, 256.0, 1.0, 1.608195167024963E9, 2020-12-17 14:37:47.024
10.0, 39827.25390625, 32575.677734375, 28574.3359375, 23223.529296875, 27680.599609375, 32963.81640625, 33476.05078125, 26127.869140625, 0.0, 0.0, 0.0, 193.0, 0.0, 1.0, 1.0, 0.0, 0.0, 1.0, 1.0, 256.0, 1.0, 1.608195167024965E9, 2020-12-17 14:37:47.024
11.0, 39862.90234375, 32620.603515625, 28624.044921875, 23274.22265625, 27746.248046875, 33032.48046875, 33546.4140625, 26195.21484375, 0.0, 0.0, 0.0, 193.0, 0.0, 1.0, 1.0, 0.0, 0.0, 1.0, 1.0, 256.0, 1.0, 1.608195167024968E9, 2020-12-17 14:37:47.024
12.0, 39816.63671875, 32568.14453125, 28583.744140625, 23240.29296875, 27708.40625, 33018.84375, 33559.5546875, 26141.68359375, 0.0, 0.0, 0.0, 193.0, 0.0, 1.0, 1.0, 0.0, 0.0, 1.0, 1.0, 256.0, 1.0, 1.60819516702497E9, 2020-12-17 14:37:47.024
13.0, 39715.78515625, 32462.666015625, 28475.427734375, 23104.505859375, 27633.482421875, 32885.16015625, 33465.54296875, 26059.427734375, 0.0, 0.0, 0.0, 193.0, 0.0, 1.0, 1.0, 0.0, 0.0, 1.0, 1.0, 256.0, 1.0, 1.608195167024973E9, 2020-12-17 14:37:47.024
14.0, 39726.84765625, 32475.51953125, 28484.390625, 23107.568359375, 27645.44140625, 32867.0546875, 33441.09375, 26081.84765625, 0.0, 0.0, 0.0, 193.0, 0.0, 1.0, 1.0, 0.0, 0.0, 1.0, 1.0, 256.0, 1.0, 1.608195167024975E9, 2020-12-17 14:37:47.024
15.0, 39816.16796875, 32578.13671875, 28573.75390625, 23203.412109375, 27687.841796875, 32950.44921875, 33468.67578125, 26143.626953125, 0.0, 0.0, 0.0, 193.0, 0.0, 1.0, 1.0, 0.0, 0.0, 1.0, 1.0, 256.0, 1.0, 1.608195167024977E9, 2020-12-17 14:37:47.024
16.0, 39822.06640625, 32598.36328125, 28590.71875, 23219.728515625, 27656.974609375, 32958.7421875, 33493.70703125, 26174.3828125, 0.0, 0.0, 0.0, 193.0, 0.0, 1.0, 1.0, 0.0, 0.0, 1.0, 1.0, 256.0, 1.0, 1.60819516708524E9, 2020-12-17 14:37:47.085
17.0, 39805.52734375, 32560.724609375, 28575.453125, 23217.740234375, 27689.294921875, 33011.15625, 33554.28125, 26141.326171875, 0.0, 0.0, 0.0, 193.0, 0.0, 1.0, 1.0, 0.0, 0.0, 1.0, 1.0, 256.0, 1.0, 1.608195167085249E9, 2020-12-17 14:37:47.085
18.0, 39740.328125, 32475.853515625, 28490.8515625, 23133.673828125, 27652.861328125, 32932.14453125, 33447.52734375, 26048.1640625, 0.0, 0.0, 0.0, 193.0, 0.0, 1.0, 1.0, 0.0, 0.0, 1.0, 1.0, 256.0, 1.0, 1.608195167085252E9, 2020-12-17 14:37:47.085
19.0, 39736.6171875, 32490.025390625, 28497.087890625, 23126.634765625, 27616.943359375, 32887.75390625, 33426.25, 26066.6484375, 0.0, 0.0, 0.0, 193.0, 0.0, 1.0, 1.0, 0.0, 0.0, 1.0, 1.0, 256.0, 1.0, 1.608195167085255E9, 2020-12-17 14:37:47.085
20.0, 39864.40234375, 32622.146484375, 28630.505859375, 23280.212890625, 27724.7890625, 33045.109375, 33559.0859375, 26180.84375, 0.0, 0.0, 0.0, 193.0, 0.0, 1.0, 1.0, 0.0, 0.0, 1.0, 1.0, 256.0, 1.0, 1.608195167085257E9, 2020-12-17 14:37:47.085
21.0, 39867.6640625, 32621.6328125, 28621.072265625, 23257.90625, 27706.662109375, 33017.28125, 33535.34765625, 26197.763671875, 0.0, 0.0, 0.0, 193.0, 0.0, 1.0, 1.0, 0.0, 0.0, 1.0, 1.0, 256.0, 1.0, 1.60819516708526E9, 2020-12-17 14:37:47.085
22.0, 39812.078125, 32553.615234375, 28564.478515625, 23203.478515625, 27692.0, 32973.76171875, 33529.046875, 26145.974609375, 0.0, 0.0, 0.0, 193.0, 0.0, 1.0, 1.0, 0.0, 0.0, 1.0, 1.0, 256.0, 1.0, 1.608195167085264E9, 2020-12-17 14:37:47.085
23.0, 39746.2265625, 32485.2421875, 28503.591796875, 23145.6328125, 27650.873046875, 32926.82421875, 33489.37109375, 26071.341796875, 0.0, 0.0, 0.0, 193.0, 0.0, 1.0, 1.0, 0.0, 0.0, 1.0, 1.0, 256.0, 1.0, 1.608195167085267E9, 2020-12-17 14:37:47.085
24.0, 39731.65625, 32491.298828125, 28501.892578125, 23128.376953125, 27620.1171875, 32903.95703125, 33457.33984375, 26080.55078125, 0.0, 0.0, 0.0, 193.0, 0.0, 1.0, 1.0, 0.0, 0.0, 1.0, 1.0, 256.0, 1.0, 1.60819516708527E9, 2020-12-17 14:37:47.085
25.0, 39848.77734375, 32619.77734375, 28630.974609375, 23265.99609375, 27715.06640625, 33044.23828125, 33569.390625, 26194.8125, 0.0, 0.0, 0.0, 193.0, 0.0, 1.0, 1.0, 0.0, 0.0, 1.0, 1.0, 256.0, 1.0, 1.608195167085273E9, 2020-12-17 14:37:47.085
26.0, 39890.28515625, 32656.0546875, 28669.732421875, 23317.115234375, 27743.296875, 33092.13671875, 33620.91015625, 26230.732421875, 0.0, 0.0, 0.0, 193.0, 0.0, 1.0, 1.0, 0.0, 0.0, 1.0, 1.0, 256.0, 1.0, 1.608195167085275E9, 2020-12-17 14:37:47.085
27.0, 39800.07421875, 32550.083984375, 28562.533203125, 23204.88671875, 27660.662109375, 32983.10546875, 33517.2890625, 26127.9375, 0.0, 0.0, 0.0, 193.0, 0.0, 1.0, 1.0, 0.0, 0.0, 1.0, 1.0, 256.0, 1.0, 1.608195167085278E9, 2020-12-17 14:37:47.085
28.0, 39691.2890625, 32443.712890625, 28459.984375, 23086.177734375, 27577.89453125, 32866.78515625, 33429.73828125, 26054.533203125, 0.0, 0.0, 0.0, 193.0, 0.0, 1.0, 1.0, 0.0, 0.0, 1.0, 1.0, 256.0, 1.0, 1.608195167085281E9, 2020-12-17 14:37:47.085
29.0, 39744.84375, 32498.138671875, 28517.404296875, 23152.583984375, 27653.46484375, 32940.1875, 33494.625, 26109.02734375, 0.0, 0.0, 0.0, 193.0, 0.0, 1.0, 1.0, 0.0, 0.0, 1.0, 1.0, 256.0, 1.0, 1.608195167085284E9, 2020-12-17 14:37:47.085
30.0, 39867.8671875, 32627.712890625, 28642.642578125, 23299.546875, 27738.826171875, 33061.89453125, 33587.2734375, 26203.486328125, 0.0, 0.0, 0.0, 193.0, 0.0, 1.0, 1.0, 0.0, 0.0, 1.0, 1.0, 256.0, 1.0, 1.608195167085287E9, 2020-12-17 14:37:47.085
31.0, 39895.26953125, 32650.890625, 28658.35546875, 23306.23046875, 27736.681640625, 33066.8125, 33594.04296875, 26228.966796875, 0.0, 0.0, 0.0, 193.0, 0.0, 1.0, 1.0, 0.0, 0.0, 1.0, 1.0, 256.0, 1.0, 1.608195167145419E9, 2020-12-17 14:37:47.145
32.0, 39818.828125, 32561.126953125, 28575.228515625, 23213.24609375, 27684.623046875, 33006.23828125, 33541.16015625, 26154.244140625, 0.0, 0.0, 0.0, 193.0, 0.0, 1.0, 1.0, 0.0, 0.0, 1.0, 1.0, 256.0, 1.0, 1.608195167145439E9, 2020-12-17 14:37:47.145
33.0, 39718.1328125, 32457.50390625, 28475.5859375, 23112.6640625, 27609.07421875, 32899.33203125, 33458.28125, 26070.0, 0.0, 0.0, 0.0, 193.0, 0.0, 1.0, 1.0, 0.0, 0.0, 1.0, 1.0, 256.0, 1.0, 1.608195167145446E9, 2020-12-17 14:37:47.145
34.0, 39739.5234375, 32486.224609375, 28505.939453125, 23146.4375, 27640.92578125, 32931.8984375, 33481.48046875, 26101.5625, 0.0, 0.0, 0.0, 193.0, 0.0, 1.0, 1.0, 0.0, 0.0, 1.0, 1.0, 256.0, 1.0, 1.608195167145453E9, 2020-12-17 14:37:47.145
35.0, 39853.25, 32612.19921875, 28624.9609375, 23275.00390625, 27713.994140625, 33044.90625, 33573.16796875, 26213.455078125, 0.0, 0.0, 0.0, 193.0, 0.0, 1.0, 1.0, 0.0, 0.0, 1.0, 1.0, 256.0, 1.0, 1.60819516714546E9, 2020-12-17 14:37:47.145
36.0, 39886.41796875, 32640.453125, 28651.828125, 23310.6328125, 27733.462890625, 33074.5234375, 33592.19140625, 26234.46484375, 0.0, 0.0, 0.0, 193.0, 0.0, 1.0, 1.0, 0.0, 0.0, 1.0, 1.0, 256.0, 1.0, 1.608195167145467E9, 2020-12-17 14:37:47.145
37.0, 39795.1328125, 32543.111328125, 28559.8515625, 23212.083984375, 27663.412109375, 32986.74609375, 33513.2890625, 26147.29296875, 0.0, 0.0, 0.0, 193.0, 0.0, 1.0, 1.0, 0.0, 0.0, 1.0, 1.0, 256.0, 1.0, 1.608195167145474E9, 2020-12-17 14:37:47.145
38.0, 39703.91796875, 32441.34375, 28457.123046875, 23102.001953125, 27593.294921875, 32889.98828125, 33438.25390625, 26072.326171875, 0.0, 0.0, 0.0, 193.0, 0.0, 1.0, 1.0, 0.0, 0.0, 1.0, 1.0, 256.0, 1.0, 1.608195167145481E9, 2020-12-17 14:37:47.145
39.0, 39731.4765625, 32475.02734375, 28492.103515625, 23141.744140625, 27633.326171875, 32931.8515625, 33466.4609375, 26105.00390625, 0.0, 0.0, 0.0, 193.0, 0.0, 1.0, 1.0, 0.0, 0.0, 1.0, 1.0, 256.0, 1.0, 1.608195167145488E9, 2020-12-17 14:37:47.145
40.0, 39849.15625, 32605.962890625, 28621.318359375, 23276.8828125, 27711.84765625, 33052.10546875, 33575.8046875, 26223.7578125, 0.0, 0.0, 0.0, 193.0, 0.0, 1.0, 1.0, 0.0, 0.0, 1.0, 1.0, 256.0, 1.0, 1.608195167145495E9, 2020-12-17 14:37:47.145
41.0, 39885.03125, 32632.71875, 28641.568359375, 23300.53125, 27708.205078125, 33065.15625, 33578.82421875, 26237.482421875, 0.0, 0.0, 0.0, 193.0, 0.0, 1.0, 1.0, 0.0, 0.0, 1.0, 1.0, 256.0, 1.0, 1.608195167145502E9, 2020-12-17 14:37:47.145
42.0, 39806.734375, 32544.09375, 28561.34765625, 23219.416015625, 27656.728515625, 33012.54296875, 33526.67578125, 26161.240234375, 0.0, 0.0, 0.0, 193.0, 0.0, 1.0, 1.0, 0.0, 0.0, 1.0, 1.0, 256.0, 1.0, 1.608195167145509E9, 2020-12-17 14:37:47.145
43.0, 39724.8359375, 32453.591796875, 28477.015625, 23127.6171875, 27614.998046875, 32947.34375, 33462.953125, 26076.572265625, 0.0, 0.0, 0.0, 193.0, 0.0, 1.0, 1.0, 0.0, 0.0, 1.0, 1.0, 256.0, 1.0, 1.608195167145516E9, 2020-12-17 14:37:47.145
44.0, 39745.8046875, 32480.1015625, 28505.9609375, 23152.0703125, 27647.072265625, 32982.0546875, 33490.265625, 26116.849609375, 0.0, 0.0, 0.0, 193.0, 0.0, 1.0, 1.0, 0.0, 0.0, 1.0, 1.0, 256.0, 1.0, 1.608195167145523E9, 2020-12-17 14:37:47.145
45.0, 39855.37109375, 32606.8125, 28628.873046875, 23291.298828125, 27719.962890625, 33088.42578125, 33585.796875, 26239.427734375, 0.0, 0.0, 0.0, 193.0, 0.0, 1.0, 1.0, 0.0, 0.0, 1.0, 1.0, 256.0, 1.0, 1.608195167145531E9, 2020-12-17 14:37:47.145
46.0, 39891.3359375, 32637.591796875, 28658.154296875, 23335.623046875, 27733.439453125, 33114.0625, 33614.67578125, 26279.080078125, 0.0, 0.0, 0.0, 193.0, 0.0, 1.0, 1.0, 0.0, 0.0, 1.0, 1.0, 256.0, 1.0, 1.608195167205796E9, 2020-12-17 14:37:47.205
47.0, 39800.140625, 32538.05859375, 28558.912109375, 23219.4375, 27647.228515625, 33011.24609375, 33534.96875, 26181.267578125, 0.0, 0.0, 0.0, 193.0, 0.0, 1.0, 1.0, 0.0, 0.0, 1.0, 1.0, 256.0, 1.0, 1.6081951672058E9, 2020-12-17 14:37:47.205
48.0, 39699.37890625, 32428.4453125, 28448.248046875, 23102.181640625, 27568.662109375, 32908.71875, 33424.44140625, 26078.806640625, 0.0, 0.0, 0.0, 193.0, 0.0, 1.0, 1.0, 0.0, 0.0, 1.0, 1.0, 256.0, 1.0, 1.608195167205802E9, 2020-12-17 14:37:47.205
49.0, 39719.51953125, 32455.3125, 28473.640625, 23122.990234375, 27597.876953125, 32920.36328125, 33445.5625, 26112.22265625, 0.0, 0.0, 0.0, 193.0, 0.0, 1.0, 1.0, 0.0, 0.0, 1.0, 1.0, 256.0, 1.0, 1.608195167205803E9, 2020-12-17 14:37:47.205
50.0, 39837.265625, 32588.9765625, 28607.236328125, 23267.404296875, 27689.048828125, 33040.63671875, 33560.7421875, 26241.013671875, 0.0, 0.0, 0.0, 193.0, 0.0, 1.0, 1.0, 0.0, 0.0, 1.0, 1.0, 256.0, 1.0, 1.608195167205805E9, 2020-12-17 14:37:47.205
51.0, 39866.19140625, 32616.53515625, 28633.6796875, 23298.072265625, 27699.15234375, 33087.91015625, 33579.42578125, 26255.54296875, 0.0, 0.0, 0.0, 193.0, 0.0, 1.0, 1.0, 0.0, 0.0, 1.0, 1.0, 256.0, 1.0, 1.608195167205807E9, 2020-12-17 14:37:47.205
52.0, 39779.53125, 32520.69140625, 28542.08203125, 23197.33203125, 27637.283203125, 33000.828125, 33499.6328125, 26167.140625, 0.0, 0.0, 0.0, 193.0, 0.0, 1.0, 1.0, 0.0, 0.0, 1.0, 1.0, 256.0, 1.0, 1.608195167205808E9, 2020-12-17 14:37:47.205
53.0, 39688.0703125, 32413.783203125, 28434.525390625, 23080.947265625, 27567.76953125, 32891.91015625, 33421.625, 26086.5859375, 0.0, 0.0, 0.0, 193.0, 0.0, 1.0, 1.0, 0.0, 0.0, 1.0, 1.0, 256.0, 1.0, 1.60819516720581E9, 2020-12-17 14:37:47.205
54.0, 39704.20703125, 32436.716796875, 28451.53515625, 23094.3359375, 27583.392578125, 32888.53515625, 33429.2890625, 26113.609375, 0.0, 0.0, 0.0, 193.0, 0.0, 1.0, 1.0, 0.0, 0.0, 1.0, 1.0, 256.0, 1.0, 1.608195167205817E9, 2020-12-17 14:37:47.205
55.0, 39814.66796875, 32563.65234375, 28575.630859375, 23224.869140625, 27664.439453125, 33000.0703125, 33531.97265625, 26234.263671875, 0.0, 0.0, 0.0, 193.0, 0.0, 1.0, 1.0, 0.0, 0.0, 1.0, 1.0, 256.0, 1.0, 1.608195167205818E9, 2020-12-17 14:37:47.205
56.0, 39858.14453125, 32604.623046875, 28614.0546875, 23268.8359375, 27681.31640625, 33033.26171875, 33562.3515625, 26265.98046875, 0.0, 0.0, 0.0, 193.0, 0.0, 1.0, 1.0, 0.0, 0.0, 1.0, 1.0, 256.0, 1.0, 1.60819516720582E9, 2020-12-17 14:37:47.205
57.0, 39767.93359375, 32503.435546875, 28515.7734375, 23163.89453125, 27597.318359375, 32937.328125, 33479.2890625, 26175.6796875, 0.0, 0.0, 0.0, 193.0, 0.0, 1.0, 1.0, 0.0, 0.0, 1.0, 1.0, 256.0, 1.0, 1.608195167205822E9, 2020-12-17 14:37:47.205
58.0, 39688.62890625, 32408.955078125, 28424.623046875, 23070.552734375, 27546.580078125, 32864.4375, 33400.0546875, 26091.75, 0.0, 0.0, 0.0, 193.0, 0.0, 1.0, 1.0, 0.0, 0.0, 1.0, 1.0, 256.0, 1.0, 1.608195167205823E9, 2020-12-17 14:37:47.205
59.0, 39716.8125, 32441.298828125, 28454.619140625, 23101.220703125, 27575.48046875, 32886.34375, 33419.12109375, 26113.408203125, 0.0, 0.0, 0.0, 193.0, 0.0, 1.0, 1.0, 0.0, 0.0, 1.0, 1.0, 256.0, 1.0, 1.608195167205825E9, 2020-12-17 14:37:47.205
60.0, 39811.33984375, 32560.634765625, 28569.91015625, 23219.349609375, 27652.861328125, 32984.98046875, 33522.47265625, 26230.419921875, 0.0, 0.0, 0.0, 193.0, 0.0, 1.0, 1.0, 0.0, 0.0, 1.0, 1.0, 256.0, 1.0, 1.608195167205827E9, 2020-12-17 14:37:47.205
61.0, 39839.61328125, 32597.828125, 28606.65625, 23260.3203125, 27656.39453125, 33032.546875, 33549.49609375, 26253.822265625, 0.0, 0.0, 0.0, 193.0, 0.0, 1.0, 1.0, 0.0, 0.0, 1.0, 1.0, 256.0, 1.0, 1.608195167265873E9, 2020-12-17 14:37:47.265
62.0, 39760.01953125, 32508.95703125, 28523.41796875, 23178.6015625, 27587.3046875, 32975.70703125, 33478.8671875, 26166.650390625, 0.0, 0.0, 0.0, 193.0, 0.0, 1.0, 1.0, 0.0, 0.0, 1.0, 1.0, 256.0, 1.0, 1.608195167265884E9, 2020-12-17 14:37:47.265
63.0, 39664.84375, 32403.27734375, 28418.140625, 23062.6640625, 27536.587890625, 32860.171875, 33400.56640625, 26089.9609375, 0.0, 0.0, 0.0, 193.0, 0.0, 1.0, 1.0, 0.0, 0.0, 1.0, 1.0, 256.0, 1.0, 1.608195167265907E9, 2020-12-17 14:37:47.265
64.0, 39677.71875, 32420.82421875, 28433.720703125, 23075.068359375, 27559.587890625, 32853.44140625, 33410.515625, 26110.099609375, 0.0, 0.0, 0.0, 193.0, 0.0, 1.0, 1.0, 0.0, 0.0, 1.0, 1.0, 256.0, 1.0, 1.608195167265914E9, 2020-12-17 14:37:47.265
65.0, 39788.98828125, 32551.58203125, 28562.220703125, 23210.2734375, 27641.619140625, 32972.01953125, 33514.94140625, 26216.494140625, 0.0, 0.0, 0.0, 193.0, 0.0, 1.0, 1.0, 0.0, 0.0, 1.0, 1.0, 256.0, 1.0, 1.608195167265921E9, 2020-12-17 14:37:47.265
66.0, 39829.35546875, 32593.447265625, 28598.5859375, 23250.796875, 27664.41796875, 32998.08203125, 33530.9921875, 26238.66796875, 0.0, 0.0, 0.0, 193.0, 0.0, 1.0, 1.0, 0.0, 0.0, 1.0, 1.0, 256.0, 1.0, 1.608195167265925E9, 2020-12-17 14:37:47.265
67.0, 39749.71484375, 32495.546875, 28501.46875, 23148.60546875, 27613.74609375, 32913.8125, 33444.19921875, 26142.017578125, 0.0, 0.0, 0.0, 193.0, 0.0, 1.0, 1.0, 0.0, 0.0, 1.0, 1.0, 256.0, 1.0, 1.60819516726593E9, 2020-12-17 14:37:47.265
68.0, 39658.4296875, 32396.482421875, 28407.412109375, 23045.921875, 27540.5, 32825.30078125, 33377.41015625, 26066.06640625, 0.0, 0.0, 0.0, 193.0, 0.0, 1.0, 1.0, 0.0, 0.0, 1.0, 1.0, 256.0, 1.0, 1.608195167265934E9, 2020-12-17 14:37:47.265
69.0, 39669.29296875, 32411.90625, 28422.611328125, 23061.298828125, 27536.4765625, 32832.34375, 33382.10546875, 26078.271484375, 0.0, 0.0, 0.0, 193.0, 0.0, 1.0, 1.0, 0.0, 0.0, 1.0, 1.0, 256.0, 1.0, 1.608195167265939E9, 2020-12-17 14:37:47.265
70.0, 39784.671875, 32543.53515625, 28551.40234375, 23203.255859375, 27627.224609375, 32957.5546875, 33489.1484375, 26184.0390625, 0.0, 0.0, 0.0, 193.0, 0.0, 1.0, 1.0, 0.0, 0.0, 1.0, 1.0, 256.0, 1.0, 1.608195167265943E9, 2020-12-17 14:37:47.265
71.0, 39829.21875, 32591.501953125, 28599.5703125, 23258.93359375, 27664.373046875, 33020.36328125, 33539.73046875, 26229.189453125, 0.0, 0.0, 0.0, 193.0, 0.0, 1.0, 1.0, 0.0, 0.0, 1.0, 1.0, 256.0, 1.0, 1.608195167265947E9, 2020-12-17 14:37:47.265
72.0, 39757.24609375, 32501.78125, 28514.41015625, 23171.91796875, 27618.462890625, 32945.8671875, 33472.80859375, 26157.75390625, 0.0, 0.0, 0.0, 193.0, 0.0, 1.0, 1.0, 0.0, 0.0, 1.0, 1.0, 256.0, 1.0, 1.608195167265952E9, 2020-12-17 14:37:47.265
73.0, 39664.84375, 32397.2421875, 28409.78125, 23058.326171875, 27555.251953125, 32834.80078125, 33376.49609375, 26060.478515625, 0.0, 0.0, 0.0, 193.0, 0.0, 1.0, 1.0, 0.0, 0.0, 1.0, 1.0, 256.0, 1.0, 1.608195167265957E9, 2020-12-17 14:37:47.265
74.0, 39681.1640625, 32421.205078125, 28437.876953125, 23090.513671875, 27575.703125, 32868.55078125, 33403.51953125, 26074.94140625, 0.0, 0.0, 0.0, 193.0, 0.0, 1.0, 1.0, 0.0, 0.0, 1.0, 1.0, 256.0, 1.0, 1.608195167265961E9, 2020-12-17 14:37:47.265
75.0, 39806.3984375, 32565.283203125, 28580.01171875, 23238.4140625, 27677.91796875, 33022.7578125, 33542.4140625, 26227.0, 0.0, 0.0, 0.0, 193.0, 0.0, 1.0, 1.0, 0.0, 0.0, 1.0, 1.0, 256.0, 1.0, 1.608195167265966E9, 2020-12-17 14:37:47.265
76.0, 39848.5546875, 32611.640625, 28623.330078125, 23289.01953125, 27685.3828125, 33057.1796875, 33581.73046875, 26282.455078125, 0.0, 0.0, 0.0, 193.0, 0.0, 1.0, 1.0, 0.0, 0.0, 1.0, 1.0, 256.0, 1.0, 1.608195167325643E9, 2020-12-17 14:37:47.325
77.0, 39757.8515625, 32512.80078125, 28527.6640625, 23180.703125, 27604.1796875, 32960.9765625, 33504.86328125, 26213.3203125, 0.0, 0.0, 0.0, 193.0, 0.0, 1.0, 1.0, 0.0, 0.0, 1.0, 1.0, 256.0, 1.0, 1.608195167325652E9, 2020-12-17 14:37:47.325
78.0, 39667.03515625, 32415.236328125, 28434.591796875, 23077.7734375, 27535.068359375, 32854.0, 33427.45703125, 26140.810546875, 0.0, 0.0, 0.0, 193.0, 0.0, 1.0, 1.0, 0.0, 0.0, 1.0, 1.0, 256.0, 1.0, 1.608195167325664E9, 2020-12-17 14:37:47.325
79.0, 39678.92578125, 32432.06640625, 28448.583984375, 23085.595703125, 27543.517578125, 32863.14453125, 33431.61328125, 26156.435546875, 0.0, 0.0, 0.0, 193.0, 0.0, 1.0, 1.0, 0.0, 0.0, 1.0, 1.0, 256.0, 1.0, 1.608195167325667E9, 2020-12-17 14:37:47.325
80.0, 39791.3125, 32556.275390625, 28566.7578125, 23207.8828125, 27615.087890625, 32963.8828125, 33518.71875, 26261.689453125, 0.0, 0.0, 0.0, 193.0, 0.0, 1.0, 1.0, 0.0, 0.0, 1.0, 1.0, 256.0, 1.0, 1.60819516732567E9, 2020-12-17 14:37:47.325
81.0, 39829.6015625, 32596.6875, 28603.482421875, 23250.931640625, 27625.392578125, 32991.12890625, 33539.328125, 26288.421875, 0.0, 0.0, 0.0, 193.0, 0.0, 1.0, 1.0, 0.0, 0.0, 1.0, 1.0, 256.0, 1.0, 1.608195167325673E9, 2020-12-17 14:37:47.325
82.0, 39758.54296875, 32508.287109375, 28518.791015625, 23167.0234375, 27567.76953125, 32914.8203125, 33463.77734375, 26194.58984375, 0.0, 0.0, 0.0, 193.0, 0.0, 1.0, 1.0, 0.0, 0.0, 1.0, 1.0, 256.0, 1.0, 1.608195167325676E9, 2020-12-17 14:37:47.325
83.0, 39669.25, 32411.90625, 28422.58984375, 23057.119140625, 27521.58984375, 32832.8125, 33386.734375, 26098.07421875, 0.0, 0.0, 0.0, 193.0, 0.0, 1.0, 1.0, 0.0, 0.0, 1.0, 1.0, 256.0, 1.0, 1.608195167325679E9, 2020-12-17 14:37:47.325
84.0, 39683.578125, 32430.681640625, 28442.90625, 23079.337890625, 27544.791015625, 32848.94921875, 33399.65234375, 26112.22265625, 0.0, 0.0, 0.0, 193.0, 0.0, 1.0, 1.0, 0.0, 0.0, 1.0, 1.0, 256.0, 1.0, 1.608195167325682E9, 2020-12-17 14:37:47.325
85.0, 39786.05859375, 32551.8046875, 28557.9296875, 23209.46875, 27606.68359375, 32942.625, 33490.87109375, 26208.4921875, 0.0, 0.0, 0.0, 193.0, 0.0, 1.0, 1.0, 0.0, 0.0, 1.0, 1.0, 256.0, 1.0, 1.608195167325685E9, 2020-12-17 14:37:47.325
86.0, 39832.99609375, 32596.912109375, 28599.525390625, 23254.375, 27637.505859375, 32991.8203125, 33527.4140625, 26235.44921875, 0.0, 0.0, 0.0, 193.0, 0.0, 1.0, 1.0, 0.0, 0.0, 1.0, 1.0, 256.0, 1.0, 1.608195167325688E9, 2020-12-17 14:37:47.325
87.0, 39761.875, 32513.650390625, 28522.76953125, 23178.712890625, 27589.16015625, 32937.28515625, 33470.9765625, 26169.48828125, 0.0, 0.0, 0.0, 193.0, 0.0, 1.0, 1.0, 0.0, 0.0, 1.0, 1.0, 256.0, 1.0, 1.608195167325692E9, 2020-12-17 14:37:47.325
88.0, 39679.21875, 32417.091796875, 28430.3671875, 23079.6953125, 27539.2265625, 32848.59375, 33397.05859375, 26087.681640625, 0.0, 0.0, 0.0, 193.0, 0.0, 1.0, 1.0, 0.0, 0.0, 1.0, 1.0, 256.0, 1.0, 1.608195167325695E9, 2020-12-17 14:37:47.325
89.0, 39694.9296875, 32437.609375, 28450.505859375, 23098.42578125, 27559.6328125, 32861.98046875, 33407.2734375, 26093.08984375, 0.0, 0.0, 0.0, 193.0, 0.0, 1.0, 1.0, 0.0, 0.0, 1.0, 1.0, 256.0, 1.0, 1.608195167325698E9, 2020-12-17 14:37:47.325
90.0, 39804.6796875, 32555.1796875, 28564.09765625, 23224.869140625, 27647.095703125, 32977.2265625, 33504.1015625, 26207.955078125, 0.0, 0.0, 0.0, 193.0, 0.0, 1.0, 1.0, 0.0, 0.0, 1.0, 1.0, 256.0, 1.0, 1.608195167325701E9, 2020-12-17 14:37:47.325
91.0, 39841.22265625, 32591.3671875, 28599.748046875, 23261.4140625, 27664.529296875, 33012.9453125, 33541.921875, 26252.703125, 0.0, 0.0, 0.0, 193.0, 0.0, 1.0, 1.0, 0.0, 0.0, 1.0, 1.0, 256.0, 1.0, 1.60819516738586E9, 2020-12-17 14:37:47.385
92.0, 39761.875, 32507.326171875, 28517.986328125, 23172.142578125, 27587.86328125, 32921.79296875, 33459.82421875, 26165.7109375, 0.0, 0.0, 0.0, 193.0, 0.0, 1.0, 1.0, 0.0, 0.0, 1.0, 1.0, 256.0, 1.0, 1.608195167385867E9, 2020-12-17 14:37:47.385
93.0, 39680.359375, 32418.90234375, 28432.78125, 23082.712890625, 27527.69140625, 32833.8828125, 33384.8984375, 26081.220703125, 0.0, 0.0, 0.0, 193.0, 0.0, 1.0, 1.0, 0.0, 0.0, 1.0, 1.0, 256.0, 1.0, 1.608195167385869E9, 2020-12-17 14:37:47.385
94.0, 39701.90625, 32432.24609375, 28450.349609375, 23108.3046875, 27555.765625, 32870.765625, 33408.5703125, 26088.732421875, 0.0, 0.0, 0.0, 193.0, 0.0, 1.0, 1.0, 0.0, 0.0, 1.0, 1.0, 256.0, 1.0, 1.60819516738587E9, 2020-12-17 14:37:47.385
95.0, 39794.171875, 32540.541015625, 28553.94921875, 23210.408203125, 27623.916015625, 32967.45703125, 33493.88671875, 26183.48046875, 0.0, 0.0, 0.0, 193.0, 0.0, 1.0, 1.0, 0.0, 0.0, 1.0, 1.0, 256.0, 1.0, 1.608195167385872E9, 2020-12-17 14:37:47.385
96.0, 39829.421875, 32579.521484375, 28591.412109375, 23248.47265625, 27650.693359375, 33003.64453125, 33531.4609375, 26229.615234375, 0.0, 0.0, 0.0, 193.0, 0.0, 1.0, 1.0, 0.0, 0.0, 1.0, 1.0, 256.0, 1.0, 1.608195167385874E9, 2020-12-17 14:37:47.385
97.0, 39759.88671875, 32500.732421875, 28514.3203125, 23173.974609375, 27593.205078125, 32931.6953125, 33465.1640625, 26154.958984375, 0.0, 0.0, 0.0, 193.0, 0.0, 1.0, 1.0, 0.0, 0.0, 1.0, 1.0, 256.0, 1.0, 1.608195167385876E9, 2020-12-17 14:37:47.385
98.0, 39680.4453125, 32407.748046875, 28425.115234375, 23083.00390625, 27541.439453125, 32847.31640625, 33390.46484375, 26074.626953125, 0.0, 0.0, 0.0, 193.0, 0.0, 1.0, 1.0, 0.0, 0.0, 1.0, 1.0, 256.0, 1.0, 1.608195167385878E9, 2020-12-17 14:37:47.385
99.0, 39688.78515625, 32413.24609375, 28434.591796875, 23101.935546875, 27544.857421875, 32858.3828125, 33388.7890625, 26069.419921875, 0.0, 0.0, 0.0, 193.0, 0.0, 1.0, 1.0, 0.0, 0.0, 1.0, 1.0, 256.0, 1.0, 1.60819516738588E9, 2020-12-17 14:37:47.385
100.0, 39795.22265625, 32536.740234375, 28553.8828125, 23222.880859375, 27636.857421875, 32979.953125, 33498.828125, 26178.49609375, 0.0, 0.0, 0.0, 193.0, 0.0, 1.0, 1.0, 0.0, 0.0, 1.0, 1.0, 256.0, 1.0, 1.608195167385882E9, 2020-12-17 14:37:47.385
101.0, 39833.625, 32582.31640625, 28594.09375, 23257.2578125, 27666.09375, 33015.671875, 33545.609375, 26228.474609375, 0.0, 0.0, 0.0, 193.0, 0.0, 1.0, 1.0, 0.0, 0.0, 1.0, 1.0, 256.0, 1.0, 1.608195167385899E9, 2020-12-17 14:37:47.385
102.0, 39751.2578125, 32488.392578125, 28502.966796875, 23164.54296875, 27587.37109375, 32912.18359375, 33459.44140625, 26139.515625, 0.0, 0.0, 0.0, 193.0, 0.0, 1.0, 1.0, 0.0, 0.0, 1.0, 1.0, 256.0, 1.0, 1.608195167385901E9, 2020-12-17 14:37:47.385
103.0, 39670.30078125, 32397.890625, 28416.80078125, 23078.80078125, 27533.056640625, 32829.63671875, 33380.33984375, 26058.466796875, 0.0, 0.0, 0.0, 193.0, 0.0, 1.0, 1.0, 0.0, 0.0, 1.0, 1.0, 256.0, 1.0, 1.608195167385903E9, 2020-12-17 14:37:47.385
104.0, 39680.40234375, 32408.486328125, 28430.0546875, 23093.0625, 27556.59375, 32866.31640625, 33395.71875, 26073.376953125, 0.0, 0.0, 0.0, 193.0, 0.0, 1.0, 1.0, 0.0, 0.0, 1.0, 1.0, 256.0, 1.0, 1.608195167385905E9, 2020-12-17 14:37:47.385
105.0, 39787.625, 32531.419921875, 28550.306640625, 23216.0625, 27633.39453125, 32974.20703125, 33496.30078125, 26179.390625, 0.0, 0.0, 0.0, 193.0, 0.0, 1.0, 1.0, 0.0, 0.0, 1.0, 1.0, 256.0, 1.0, 1.608195167385907E9, 2020-12-17 14:37:47.385
106.0, 39826.6953125, 32576.66015625, 28593.53515625, 23258.978515625, 27652.974609375, 33007.22265625, 33536.19921875, 26224.384765625, 0.0, 0.0, 0.0, 193.0, 0.0, 1.0, 1.0, 0.0, 0.0, 1.0, 1.0, 256.0, 1.0, 1.60819516744529E9, 2020-12-17 14:37:47.445
107.0, 39753.3359375, 32497.9375, 28515.326171875, 23172.833984375, 27591.841796875, 32927.6953125, 33463.3984375, 26150.376953125, 0.0, 0.0, 0.0, 193.0, 0.0, 1.0, 1.0, 0.0, 0.0, 1.0, 1.0, 256.0, 1.0, 1.608195167445296E9, 2020-12-17 14:37:47.445
108.0, 39682.7734375, 32413.560546875, 28437.296875, 23096.771484375, 27546.6015625, 32862.94140625, 33400.5, 26067.185546875, 0.0, 0.0, 0.0, 193.0, 0.0, 1.0, 1.0, 0.0, 0.0, 1.0, 1.0, 256.0, 1.0, 1.608195167445298E9, 2020-12-17 14:37:47.445
109.0, 39695.35546875, 32422.6796875, 28447.533203125, 23108.373046875, 27560.236328125, 32873.53515625, 33410.9609375, 26067.720703125, 0.0, 0.0, 0.0, 193.0, 0.0, 1.0, 1.0, 0.0, 0.0, 1.0, 1.0, 256.0, 1.0, 1.6081951674453E9, 2020-12-17 14:37:47.445
110.0, 39796.18359375, 32540.80859375, 28559.26953125, 23221.875, 27640.568359375, 32973.24609375, 33508.9296875, 26182.138671875, 0.0, 0.0, 0.0, 193.0, 0.0, 1.0, 1.0, 0.0, 0.0, 1.0, 1.0, 256.0, 1.0, 1.608195167445302E9, 2020-12-17 14:37:47.445
111.0, 39840.59765625, 32596.732421875, 28613.16015625, 23284.68359375, 27665.53515625, 33019.984375, 33558.1484375, 26235.73828125, 0.0, 0.0, 0.0, 193.0, 0.0, 1.0, 1.0, 0.0, 0.0, 1.0, 1.0, 256.0, 1.0, 1.608195167445304E9, 2020-12-17 14:37:47.445
112.0, 39777.4296875, 32521.607421875, 28542.4609375, 23213.068359375, 27615.1328125, 32962.51953125, 33504.68359375, 26175.6796875, 0.0, 0.0, 0.0, 193.0, 0.0, 1.0, 1.0, 0.0, 0.0, 1.0, 1.0, 256.0, 1.0, 1.608195167445306E9, 2020-12-17 14:37:47.445
113.0, 39687.7109375, 32418.07421875, 28438.234375, 23094.068359375, 27547.697265625, 32864.37109375, 33408.0546875, 26082.8984375, 0.0, 0.0, 0.0, 193.0, 0.0, 1.0, 1.0, 0.0, 0.0, 1.0, 1.0, 256.0, 1.0, 1.608195167445308E9, 2020-12-17 14:37:47.445
114.0, 39689.72265625, 32417.560546875, 28440.26953125, 23096.34765625, 27554.58203125, 32865.0859375, 33401.52734375, 26077.154296875, 0.0, 0.0, 0.0, 193.0, 0.0, 1.0, 1.0, 0.0, 0.0, 1.0, 1.0, 256.0, 1.0, 1.60819516744531E9, 2020-12-17 14:37:47.445
115.0, 39806.1328125, 32543.84765625, 28567.271484375, 23236.6484375, 27652.080078125, 32986.79296875, 33514.96484375, 26191.505859375, 0.0, 0.0, 0.0, 193.0, 0.0, 1.0, 1.0, 0.0, 0.0, 1.0, 1.0, 256.0, 1.0, 1.608195167445312E9, 2020-12-17 14:37:47.445
116.0, 39851.2578125, 32594.900390625, 28612.892578125, 23287.677734375, 27687.955078125, 33030.8046875, 33557.9453125, 26240.701171875, 0.0, 0.0, 0.0, 193.0, 0.0, 1.0, 1.0, 0.0, 0.0, 1.0, 1.0, 256.0, 1.0, 1.608195167445313E9, 2020-12-17 14:37:47.445
117.0, 39773.1171875, 32509.8515625, 28530.50390625, 23200.193359375, 27618.73046875, 32966.609375, 33484.765625, 26163.20703125, 0.0, 0.0, 0.0, 193.0, 0.0, 1.0, 1.0, 0.0, 0.0, 1.0, 1.0, 256.0, 1.0, 1.608195167445315E9, 2020-12-17 14:37:47.445
118.0, 39697.3671875, 32420.466796875, 28445.23046875, 23110.83203125, 27561.220703125, 32887.7734375, 33411.85546875, 26079.3671875, 0.0, 0.0, 0.0, 193.0, 0.0, 1.0, 1.0, 0.0, 0.0, 1.0, 1.0, 256.0, 1.0, 1.608195167445317E9, 2020-12-17 14:37:47.445
119.0, 39701.30078125, 32429.787109375, 28452.697265625, 23114.51953125, 27570.451171875, 32875.01171875, 33413.0625, 26084.283203125, 0.0, 0.0, 0.0, 193.0, 0.0, 1.0, 1.0, 0.0, 0.0, 1.0, 1.0, 256.0, 1.0, 1.608195167445319E9, 2020-12-17 14:37:47.445
120.0, 39822.9375, 32557.638671875, 28577.107421875, 23250.3515625, 27665.357421875, 32989.921875, 33514.5625, 26194.611328125, 0.0, 0.0, 0.0, 193.0, 0.0, 1.0, 1.0, 0.0, 0.0, 1.0, 1.0, 256.0, 1.0, 1.608195167445321E9, 2020-12-17 14:37:47.445
121.0, 39864.828125, 32602.611328125, 28620.111328125, 23296.3515625, 27692.55859375, 33046.8515625, 33557.09765625, 26236.185546875, 0.0, 0.0, 0.0, 193.0, 0.0, 1.0, 1.0, 0.0, 0.0, 1.0, 1.0, 256.0, 1.0, 1.608195167505113E9, 2020-12-17 14:37:47.505
122.0, 39795.22265625, 32527.107421875, 28547.021484375, 23223.193359375, 27637.126953125, 32978.703125, 33498.51171875, 26169.15234375, 0.0, 0.0, 0.0, 193.0, 0.0, 1.0, 1.0, 0.0, 0.0, 1.0, 1.0, 256.0, 1.0, 1.608195167505121E9, 2020-12-17 14:37:47.505
123.0, 39713.3046875, 32436.1796875, 28459.044921875, 23126.96875, 27581.447265625, 32892.84765625, 33427.3671875, 26088.576171875, 0.0, 0.0, 0.0, 193.0, 0.0, 1.0, 1.0, 0.0, 0.0, 1.0, 1.0, 256.0, 1.0, 1.608195167505123E9, 2020-12-17 14:37:47.505
124.0, 39713.90625, 32444.896484375, 28472.5, 23138.369140625, 27594.634765625, 32908.40625, 33453.1171875, 26100.376953125, 0.0, 0.0, 0.0, 193.0, 0.0, 1.0, 1.0, 0.0, 0.0, 1.0, 1.0, 256.0, 1.0, 1.608195167505132E9, 2020-12-17 14:37:47.505
125.0, 39821.3984375, 32562.109375, 28586.71875, 23263.404296875, 27678.521484375, 33021.75, 33543.41796875, 26206.994140625, 0.0, 0.0, 0.0, 193.0, 0.0, 1.0, 1.0, 0.0, 0.0, 1.0, 1.0, 256.0, 1.0, 1.608195167505134E9, 2020-12-17 14:37:47.505
126.0, 39871.5078125, 32618.189453125, 28634.796875, 23318.92578125, 27702.974609375, 33056.70703125, 33564.00390625, 26244.76953125, 0.0, 0.0, 0.0, 193.0, 0.0, 1.0, 1.0, 0.0, 0.0, 1.0, 1.0, 256.0, 1.0, 1.608195167505136E9, 2020-12-17 14:37:47.505
127.0, 39795.0, 32527.755859375, 28545.5234375, 23223.39453125, 27649.8671875, 32982.25390625, 33493.484375, 26175.412109375, 0.0, 0.0, 0.0, 193.0, 0.0, 1.0, 1.0, 0.0, 0.0, 1.0, 1.0, 256.0, 1.0, 1.608195167505139E9, 2020-12-17 14:37:47.505
128.0, 39706.48828125, 32427.8203125, 28452.115234375, 23115.48046875, 27582.521484375, 32887.640625, 33420.39453125, 26089.580078125, 0.0, 0.0, 0.0, 193.0, 0.0, 1.0, 1.0, 0.0, 0.0, 1.0, 1.0, 256.0, 1.0, 1.608195167505141E9, 2020-12-17 14:37:47.505
129.0, 39719.62890625, 32438.83984375, 28464.20703125, 23123.146484375, 27599.978515625, 32908.91796875, 33432.62109375, 26094.833984375, 0.0, 0.0, 0.0, 193.0, 0.0, 1.0, 1.0, 0.0, 0.0, 1.0, 1.0, 256.0, 1.0, 1.608195167505143E9, 2020-12-17 14:37:47.505
130.0, 39827.43359375, 32568.033203125, 28588.08203125, 23255.4921875, 27675.056640625, 33018.421875, 33536.109375, 26207.44140625, 0.0, 0.0, 0.0, 193.0, 0.0, 1.0, 1.0, 0.0, 0.0, 1.0, 1.0, 256.0, 1.0, 1.608195167505145E9, 2020-12-17 14:37:47.505
131.0, 39872.1796875, 32625.38671875, 28642.59765625, 23321.361328125, 27703.01953125, 33064.46484375, 33575.76171875, 26260.146484375, 0.0, 0.0, 0.0, 193.0, 0.0, 1.0, 1.0, 0.0, 0.0, 1.0, 1.0, 256.0, 1.0, 1.608195167505147E9, 2020-12-17 14:37:47.505
132.0, 39799.6953125, 32536.248046875, 28559.896484375, 23239.755859375, 27655.0078125, 33001.61328125, 33508.9296875, 26170.78515625, 0.0, 0.0, 0.0, 193.0, 0.0, 1.0, 1.0, 0.0, 0.0, 1.0, 1.0, 256.0, 1.0, 1.608195167505149E9, 2020-12-17 14:37:47.505
133.0, 39697.90234375, 32426.0546875, 28456.048828125, 23128.04296875, 27579.5703125, 32900.046875, 33426.05078125, 26075.052734375, 0.0, 0.0, 0.0, 193.0, 0.0, 1.0, 1.0, 0.0, 0.0, 1.0, 1.0, 256.0, 1.0, 1.608195167505151E9, 2020-12-17 14:37:47.505
134.0, 39701.75, 32432.984375, 28462.12890625, 23131.505859375, 27591.57421875, 32896.26953125, 33431.03515625, 26087.904296875, 0.0, 0.0, 0.0, 193.0, 0.0, 1.0, 1.0, 0.0, 0.0, 1.0, 1.0, 256.0, 1.0, 1.608195167505154E9, 2020-12-17 14:37:47.505
135.0, 39821.6640625, 32564.9921875, 28588.4609375, 23262.890625, 27682.09765625, 33015.3359375, 33538.1640625, 26212.314453125, 0.0, 0.0, 0.0, 193.0, 0.0, 1.0, 1.0, 0.0, 0.0, 1.0, 1.0, 256.0, 1.0, 1.608195167505156E9, 2020-12-17 14:37:47.505
136.0, 39884.40625, 32631.6015625, 28654.509765625, 23335.197265625, 27729.70703125, 33092.5625, 33602.47265625, 26279.123046875, 0.0, 0.0, 0.0, 193.0, 0.0, 1.0, 1.0, 0.0, 0.0, 1.0, 1.0, 256.0, 1.0, 1.608195167565293E9, 2020-12-17 14:37:47.565
137.0, 39801.546875, 32537.34375, 28563.31640625, 23236.515625, 27667.63671875, 33010.12890625, 33529.76171875, 26195.55078125, 0.0, 0.0, 0.0, 193.0, 0.0, 1.0, 1.0, 0.0, 0.0, 1.0, 1.0, 256.0, 1.0, 1.608195167565298E9, 2020-12-17 14:37:47.565
138.0, 39698.640625, 32426.390625, 28454.328125, 23118.921875, 27587.21484375, 32896.91796875, 33436.15234375, 26090.83203125, 0.0, 0.0, 0.0, 193.0, 0.0, 1.0, 1.0, 0.0, 0.0, 1.0, 1.0, 256.0, 1.0, 1.6081951675653E9, 2020-12-17 14:37:47.565
139.0, 39703.9375, 32424.04296875, 28453.6796875, 23118.408203125, 27587.728515625, 32879.81640625, 33437.984375, 26089.939453125, 0.0, 0.0, 0.0, 193.0, 0.0, 1.0, 1.0, 0.0, 0.0, 1.0, 1.0, 256.0, 1.0, 1.608195167565301E9, 2020-12-17 14:37:47.565
140.0, 39829.98046875, 32563.763671875, 28593.06640625, 23270.9140625, 27683.88671875, 33017.34765625, 33555.80078125, 26214.70703125, 0.0, 0.0, 0.0, 193.0, 0.0, 1.0, 1.0, 0.0, 0.0, 1.0, 1.0, 256.0, 1.0, 1.608195167565303E9, 2020-12-17 14:37:47.565
141.0, 39885.30078125, 32629.767578125, 28651.537109375, 23338.169921875, 27716.02734375, 33078.7265625, 33587.71875, 26270.541015625, 0.0, 0.0, 0.0, 193.0, 0.0, 1.0, 1.0, 0.0, 0.0, 1.0, 1.0, 256.0, 1.0, 1.608195167565305E9, 2020-12-17 14:37:47.565
142.0, 39800.67578125, 32536.3828125, 28557.59375, 23236.380859375, 27642.580078125, 32983.6171875, 33501.80078125, 26182.072265625, 0.0, 0.0, 0.0, 193.0, 0.0, 1.0, 1.0, 0.0, 0.0, 1.0, 1.0, 256.0, 1.0, 1.608195167565307E9, 2020-12-17 14:37:47.565
143.0, 39703.359375, 32426.859375, 28454.3515625, 23124.689453125, 27562.986328125, 32879.8828125, 33421.625, 26082.451171875, 0.0, 0.0, 0.0, 193.0, 0.0, 1.0, 1.0, 0.0, 0.0, 1.0, 1.0, 256.0, 1.0, 1.608195167565309E9, 2020-12-17 14:37:47.565
144.0, 39701.76953125, 32426.748046875, 28455.423828125, 23119.59375, 27576.173828125, 32897.3203125, 33434.765625, 26089.537109375, 0.0, 0.0, 0.0, 193.0, 0.0, 1.0, 1.0, 0.0, 0.0, 1.0, 1.0, 256.0, 1.0, 1.608195167565311E9, 2020-12-17 14:37:47.565
145.0, 39839.27734375, 32579.677734375, 28607.28125, 23287.90234375, 27694.1015625, 33044.4375, 33556.4921875, 26220.853515625, 0.0, 0.0, 0.0, 193.0, 0.0, 1.0, 1.0, 0.0, 0.0, 1.0, 1.0, 256.0, 1.0, 1.608195167565312E9, 2020-12-17 14:37:47.565
146.0, 39890.28515625, 32642.46484375, 28665.552734375, 23347.78125, 27718.62109375, 33095.30859375, 33600.7734375, 26274.98828125, 0.0, 0.0, 0.0, 193.0, 0.0, 1.0, 1.0, 0.0, 0.0, 1.0, 1.0, 256.0, 1.0, 1.608195167565314E9, 2020-12-17 14:37:47.565
147.0, 39796.00390625, 32532.470703125, 28556.005859375, 23229.943359375, 27638.712890625, 32989.72265625, 33511.61328125, 26178.318359375, 0.0, 0.0, 0.0, 193.0, 0.0, 1.0, 1.0, 0.0, 0.0, 1.0, 1.0, 256.0, 1.0, 1.608195167565322E9, 2020-12-17 14:37:47.565
148.0, 39709.7734375, 32428.15625, 28454.57421875, 23124.95703125, 27573.357421875, 32882.140625, 33421.734375, 26085.55859375, 0.0, 0.0, 0.0, 193.0, 0.0, 1.0, 1.0, 0.0, 0.0, 1.0, 1.0, 256.0, 1.0, 1.608195167565324E9, 2020-12-17 14:37:47.565
149.0, 39705.03515625, 32426.546875, 28455.916015625, 23125.181640625, 27577.447265625, 32886.14453125, 33421.2421875, 26079.970703125, 0.0, 0.0, 0.0, 193.0, 0.0, 1.0, 1.0, 0.0, 0.0, 1.0, 1.0, 256.0, 1.0, 1.608195167565326E9, 2020-12-17 14:37:47.565
150.0, 39822.0234375, 32564.501953125, 28594.40625, 23273.39453125, 27666.7421875, 33019.984375, 33537.25, 26199.708984375, 0.0, 0.0, 0.0, 193.0, 0.0, 1.0, 1.0, 0.0, 0.0, 1.0, 1.0, 256.0, 1.0, 1.608195167565328E9, 2020-12-17 14:37:47.565
151.0, 39879.17578125, 32630.908203125, 28659.427734375, 23345.61328125, 27698.90625, 33075.28515625, 33593.23828125, 26264.283203125, 0.0, 0.0, 0.0, 193.0, 0.0, 1.0, 1.0, 0.0, 0.0, 1.0, 1.0, 256.0, 1.0, 1.608195167625641E9, 2020-12-17 14:37:47.625
152.0, 39786.796875, 32528.224609375, 28557.83984375, 23228.46875, 27622.486328125, 32979.28125, 33514.44921875, 26179.0546875, 0.0, 0.0, 0.0, 193.0, 0.0, 1.0, 1.0, 0.0, 0.0, 1.0, 1.0, 256.0, 1.0, 1.608195167625654E9, 2020-12-17 14:37:47.625
153.0, 39683.0390625, 32411.5703125, 28444.494140625, 23104.125, 27541.482421875, 32876.15234375, 33429.46875, 26076.505859375, 0.0, 0.0, 0.0, 193.0, 0.0, 1.0, 1.0, 0.0, 0.0, 1.0, 1.0, 256.0, 1.0, 1.60819516762566E9, 2020-12-17 14:37:47.625
154.0, 39685.58984375, 32414.431640625, 28447.421875, 23112.88671875, 27545.55078125, 32871.2109375, 33417.4453125, 26068.8828125, 0.0, 0.0, 0.0, 193.0, 0.0, 1.0, 1.0, 0.0, 0.0, 1.0, 1.0, 256.0, 1.0, 1.608195167625666E9, 2020-12-17 14:37:47.625
155.0, 39817.3515625, 32565.529296875, 28596.73046875, 23277.552734375, 27661.01953125, 33024.1640625, 33549.20703125, 26215.599609375, 0.0, 0.0, 0.0, 193.0, 0.0, 1.0, 1.0, 0.0, 0.0, 1.0, 1.0, 256.0, 1.0, 1.608195167625672E9, 2020-12-17 14:37:47.625
156.0, 39881.30078125, 32636.18359375, 28662.87109375, 23353.99609375, 27703.130859375, 33084.11328125, 33592.2578125, 26273.71484375, 0.0, 0.0, 0.0, 193.0, 0.0, 1.0, 1.0, 0.0, 0.0, 1.0, 1.0, 256.0, 1.0, 1.608195167625677E9, 2020-12-17 14:37:47.625
157.0, 39792.83203125, 32531.912109375, 28558.2421875, 23233.2734375, 27635.271484375, 32993.02734375, 33511.09765625, 26186.69921875, 0.0, 0.0, 0.0, 193.0, 0.0, 1.0, 1.0, 0.0, 0.0, 1.0, 1.0, 256.0, 1.0, 1.608195167625682E9, 2020-12-17 14:37:47.625
158.0, 39691.46484375, 32413.873046875, 28442.548828125, 23109.712890625, 27556.212890625, 32878.54296875, 33413.93359375, 26080.259765625, 0.0, 0.0, 0.0, 193.0, 0.0, 1.0, 1.0, 0.0, 0.0, 1.0, 1.0, 256.0, 1.0, 1.608195167625687E9, 2020-12-17 14:37:47.625
159.0, 39685.65625, 32412.486328125, 28442.66015625, 23102.025390625, 27547.7421875, 32873.0234375, 33413.0390625, 26074.29296875, 0.0, 0.0, 0.0, 193.0, 0.0, 1.0, 1.0, 0.0, 0.0, 1.0, 1.0, 256.0, 1.0, 1.608195167625692E9, 2020-12-17 14:37:47.625
160.0, 39814.1328125, 32558.845703125, 28588.283203125, 23260.677734375, 27645.462890625, 33008.33984375, 33533.76171875, 26199.796875, 0.0, 0.0, 0.0, 193.0, 0.0, 1.0, 1.0, 0.0, 0.0, 1.0, 1.0, 256.0, 1.0, 1.608195167625698E9, 2020-12-17 14:37:47.625
161.0, 39895.44921875, 32639.044921875, 28665.306640625, 23357.75, 27711.892578125, 33092.4921875, 33600.90625, 26273.1328125, 0.0, 0.0, 0.0, 193.0, 0.0, 1.0, 1.0, 0.0, 0.0, 1.0, 1.0, 256.0, 1.0, 1.608195167625704E9, 2020-12-17 14:37:47.625
162.0, 39803.8046875, 32537.34375, 28564.724609375, 23245.388671875, 27642.37890625, 32996.60546875, 33520.93359375, 26184.822265625, 0.0, 0.0, 0.0, 193.0, 0.0, 1.0, 1.0, 0.0, 0.0, 1.0, 1.0, 256.0, 1.0, 1.60819516762571E9, 2020-12-17 14:37:47.625
163.0, 39685.1640625, 32411.525390625, 28441.654296875, 23110.80859375, 27547.048828125, 32878.23046875, 33413.84375, 26069.798828125, 0.0, 0.0, 0.0, 193.0, 0.0, 1.0, 1.0, 0.0, 0.0, 1.0, 1.0, 256.0, 1.0, 1.608195167625716E9, 2020-12-17 14:37:47.625
164.0, 39682.97265625, 32413.89453125, 28445.74609375, 23114.654296875, 27548.322265625, 32874.140625, 33413.109375, 26063.072265625, 0.0, 0.0, 0.0, 193.0, 0.0, 1.0, 1.0, 0.0, 0.0, 1.0, 1.0, 256.0, 1.0, 1.608195167625721E9, 2020-12-17 14:37:47.625
165.0, 39819.765625, 32561.55078125, 28592.73046875, 23270.087890625, 27650.716796875, 33011.0234375, 33535.953125, 26194.27734375, 0.0, 0.0, 0.0, 193.0, 0.0, 1.0, 1.0, 0.0, 0.0, 1.0, 1.0, 256.0, 1.0, 1.608195167625727E9, 2020-12-17 14:37:47.625
166.0, 39889.30078125, 32635.982421875, 28665.126953125, 23344.5859375, 27692.447265625, 33081.5859375, 33599.8125, 26259.1640625, 0.0, 0.0, 0.0, 193.0, 0.0, 1.0, 1.0, 0.0, 0.0, 1.0, 1.0, 256.0, 1.0, 1.608195167685776E9, 2020-12-17 14:37:47.685
167.0, 39805.640625, 32543.19921875, 28576.279296875, 23265.52734375, 27630.5546875, 32996.40234375, 33527.83984375, 26178.763671875, 0.0, 0.0, 0.0, 193.0, 0.0, 1.0, 1.0, 0.0, 0.0, 1.0, 1.0, 256.0, 1.0, 1.608195167685782E9, 2020-12-17 14:37:47.685
168.0, 39684.42578125, 32411.8828125, 28445.96875, 23123.50390625, 27540.65625, 32882.1640625, 33417.375, 26067.900390625, 0.0, 0.0, 0.0, 193.0, 0.0, 1.0, 1.0, 0.0, 0.0, 1.0, 1.0, 256.0, 1.0, 1.608195167685783E9, 2020-12-17 14:37:47.685
169.0, 39678.5703125, 32404.73046875, 28434.279296875, 23098.693359375, 27545.283203125, 32885.62890625, 33402.19921875, 26056.724609375, 0.0, 0.0, 0.0, 193.0, 0.0, 1.0, 1.0, 0.0, 0.0, 1.0, 1.0, 256.0, 1.0, 1.608195167685785E9, 2020-12-17 14:37:47.685
170.0, 39806.35546875, 32552.9453125, 28580.080078125, 23255.89453125, 27645.396484375, 33019.91796875, 33526.23046875, 26181.4921875, 0.0, 0.0, 0.0, 193.0, 0.0, 1.0, 1.0, 0.0, 0.0, 1.0, 1.0, 256.0, 1.0, 1.608195167685787E9, 2020-12-17 14:37:47.685
171.0, 39883.17578125, 32637.412109375, 28664.994140625, 23348.876953125, 27699.7109375, 33086.703125, 33603.43359375, 26259.365234375, 0.0, 0.0, 0.0, 193.0, 0.0, 1.0, 1.0, 0.0, 0.0, 1.0, 1.0, 256.0, 1.0, 1.608195167685794E9, 2020-12-17 14:37:47.685
172.0, 39801.390625, 32537.455078125, 28569.23828125, 23248.62890625, 27632.90234375, 33005.09765625, 33526.33984375, 26180.462890625, 0.0, 0.0, 0.0, 193.0, 0.0, 1.0, 1.0, 0.0, 0.0, 1.0, 1.0, 256.0, 1.0, 1.608195167685796E9, 2020-12-17 14:37:47.685
173.0, 39679.88671875, 32412.3984375, 28446.259765625, 23117.357421875, 27535.537109375, 32880.7109375, 33416.21484375, 26060.94921875, 0.0, 0.0, 0.0, 193.0, 0.0, 1.0, 1.0, 0.0, 0.0, 1.0, 1.0, 256.0, 1.0, 1.608195167685797E9, 2020-12-17 14:37:47.685
174.0, 39677.2734375, 32408.173828125, 28441.365234375, 23112.685546875, 27536.119140625, 32873.4921875, 33407.296875, 26048.408203125, 0.0, 0.0, 0.0, 193.0, 0.0, 1.0, 1.0, 0.0, 0.0, 1.0, 1.0, 256.0, 1.0, 1.608195167685799E9, 2020-12-17 14:37:47.685
175.0, 39803.13671875, 32552.521484375, 28582.537109375, 23260.07421875, 27641.59765625, 33012.20703125, 33519.90234375, 26171.90234375, 0.0, 0.0, 0.0, 193.0, 0.0, 1.0, 1.0, 0.0, 0.0, 1.0, 1.0, 256.0, 1.0, 1.608195167685801E9, 2020-12-17 14:37:47.685
176.0, 39883.82421875, 32631.6015625, 28661.373046875, 23347.78125, 27698.68359375, 33083.3515625, 33582.51171875, 26243.5625, 0.0, 0.0, 0.0, 193.0, 0.0, 1.0, 1.0, 0.0, 0.0, 1.0, 1.0, 256.0, 1.0, 1.608195167685803E9, 2020-12-17 14:37:47.685
177.0, 39800.65625, 32532.94140625, 28563.359375, 23239.2421875, 27628.38671875, 32992.55859375, 33508.34765625, 26162.537109375, 0.0, 0.0, 0.0, 193.0, 0.0, 1.0, 1.0, 0.0, 0.0, 1.0, 1.0, 256.0, 1.0, 1.608195167685804E9, 2020-12-17 14:37:47.685
178.0, 39694.171875, 32418.521484375, 28453.232421875, 23125.404296875, 27550.06640625, 32894.30078125, 33415.5, 26055.3828125, 0.0, 0.0, 0.0, 193.0, 0.0, 1.0, 1.0, 0.0, 0.0, 1.0, 1.0, 256.0, 1.0, 1.608195167685806E9, 2020-12-17 14:37:47.685
179.0, 39686.4375, 32414.095703125, 28452.16015625, 23123.59375, 27557.15234375, 32900.8515625, 33423.3203125, 26054.041015625, 0.0, 0.0, 0.0, 193.0, 0.0, 1.0, 1.0, 0.0, 0.0, 1.0, 1.0, 256.0, 1.0, 1.608195167685808E9, 2020-12-17 14:37:47.685
180.0, 39816.2578125, 32560.701171875, 28599.63671875, 23282.716796875, 27665.84765625, 33040.05859375, 33555.375, 26188.95703125, 0.0, 0.0, 0.0, 193.0, 0.0, 1.0, 1.0, 0.0, 0.0, 1.0, 1.0, 256.0, 1.0, 1.608195167685809E9, 2020-12-17 14:37:47.685
181.0, 39896.453125, 32640.2734375, 28675.0078125, 23369.93359375, 27723.203125, 33124.3671875, 33610.8515625, 26260.818359375, 0.0, 0.0, 0.0, 193.0, 0.0, 1.0, 1.0, 0.0, 0.0, 1.0, 1.0, 256.0, 1.0, 1.608195167744728E9, 2020-12-17 14:37:47.744
182.0, 39813.59765625, 32549.078125, 28583.701171875, 23270.802734375, 27649.8671875, 33028.09765625, 33529.5390625, 26174.607421875, 0.0, 0.0, 0.0, 193.0, 0.0, 1.0, 1.0, 0.0, 0.0, 1.0, 1.0, 256.0, 1.0, 1.608195167744734E9, 2020-12-17 14:37:47.744
183.0, 39701.92578125, 32422.09765625, 28459.380859375, 23141.408203125, 27567.8359375, 32901.34375, 33419.90234375, 26058.9140625, 0.0, 0.0, 0.0, 193.0, 0.0, 1.0, 1.0, 0.0, 0.0, 1.0, 1.0, 256.0, 1.0, 1.608195167744736E9, 2020-12-17 14:37:47.744
184.0, 39680.1328125, 32402.0703125, 28437.564453125, 23110.361328125, 27559.833984375, 32879.19140625, 33400.0546875, 26038.306640625, 0.0, 0.0, 0.0, 193.0, 0.0, 1.0, 1.0, 0.0, 0.0, 1.0, 1.0, 256.0, 1.0, 1.608195167744738E9, 2020-12-17 14:37:47.744
185.0, 39806.84765625, 32543.19921875, 28575.7421875, 23262.17578125, 27660.818359375, 33016.609375, 33516.125, 26159.67578125, 0.0, 0.0, 0.0, 193.0, 0.0, 1.0, 1.0, 0.0, 0.0, 1.0, 1.0, 256.0, 1.0, 1.60819516774474E9, 2020-12-17 14:37:47.744
186.0, 39884.6953125, 32634.216796875, 28661.70703125, 23348.810546875, 27713.501953125, 33090.97265625, 33590.6015625, 26247.517578125, 0.0, 0.0, 0.0, 193.0, 0.0, 1.0, 1.0, 0.0, 0.0, 1.0, 1.0, 256.0, 1.0, 1.608195167744742E9, 2020-12-17 14:37:47.744
187.0, 39804.09765625, 32544.474609375, 28575.787109375, 23258.1953125, 27636.0078125, 33001.9921875, 33513.95703125, 26163.587890625, 0.0, 0.0, 0.0, 193.0, 0.0, 1.0, 1.0, 0.0, 0.0, 1.0, 1.0, 256.0, 1.0, 1.608195167744744E9, 2020-12-17 14:37:47.744
188.0, 39700.36328125, 32426.2109375, 28465.482421875, 23144.537109375, 27565.578125, 32898.4140625, 33427.76953125, 26057.349609375, 0.0, 0.0, 0.0, 193.0, 0.0, 1.0, 1.0, 0.0, 0.0, 1.0, 1.0, 256.0, 1.0, 1.608195167744747E9, 2020-12-17 14:37:47.744
189.0, 39689.38671875, 32415.861328125, 28459.3359375, 23141.23046875, 27571.076171875, 32903.8671875, 33428.015625, 26041.97265625, 0.0, 0.0, 0.0, 193.0, 0.0, 1.0, 1.0, 0.0, 0.0, 1.0, 1.0, 256.0, 1.0, 1.608195167744749E9, 2020-12-17 14:37:47.744
190.0, 39819.07421875, 32559.248046875, 28598.85546875, 23292.21484375, 27676.2421875, 33038.40234375, 33538.87890625, 26166.984375, 0.0, 0.0, 0.0, 193.0, 0.0, 1.0, 1.0, 0.0, 0.0, 1.0, 1.0, 256.0, 1.0, 1.608195167744751E9, 2020-12-17 14:37:47.744
191.0, 39894.93359375, 32641.927734375, 28670.73828125, 23357.52734375, 27727.6953125, 33105.078125, 33597.84375, 26237.705078125, 0.0, 0.0, 0.0, 193.0, 0.0, 1.0, 1.0, 0.0, 0.0, 1.0, 1.0, 256.0, 1.0, 1.608195167744753E9, 2020-12-17 14:37:47.744
192.0, 39830.09375, 32556.6328125, 28587.03125, 23273.373046875, 27672.642578125, 33030.265625, 33530.43359375, 26168.7734375, 0.0, 0.0, 0.0, 193.0, 0.0, 1.0, 1.0, 0.0, 0.0, 1.0, 1.0, 256.0, 1.0, 1.608195167744755E9, 2020-12-17 14:37:47.744
193.0, 39719.09375, 32437.029296875, 28473.88671875, 23158.865234375, 27584.263671875, 32919.55859375, 33432.48828125, 26059.048828125, 0.0, 0.0, 0.0, 193.0, 0.0, 1.0, 1.0, 0.0, 0.0, 1.0, 1.0, 256.0, 1.0, 1.608195167744757E9, 2020-12-17 14:37:47.744
194.0, 39703.69140625, 32423.908203125, 28460.2734375, 23141.900390625, 27575.994140625, 32897.65234375, 33416.50390625, 26033.208984375, 0.0, 0.0, 0.0, 193.0, 0.0, 1.0, 1.0, 0.0, 0.0, 1.0, 1.0, 256.0, 1.0, 1.608195167744767E9, 2020-12-17 14:37:47.744
195.0, 39828.2578125, 32573.375, 28603.68359375, 23288.349609375, 27676.509765625, 33028.41015625, 33532.7109375, 26156.546875, 0.0, 0.0, 0.0, 193.0, 0.0, 1.0, 1.0, 0.0, 0.0, 1.0, 1.0, 256.0, 1.0, 1.608195167744769E9, 2020-12-17 14:37:47.744
196.0, 39913.1953125, 32668.236328125, 28695.90625, 23400.732421875, 27736.099609375, 33117.59375, 33605.0859375, 26236.1640625, 0.0, 0.0, 0.0, 193.0, 0.0, 1.0, 1.0, 0.0, 0.0, 1.0, 1.0, 256.0, 1.0, 1.608195167805164E9, 2020-12-17 14:37:47.805
197.0, 39825.9140625, 32556.142578125, 28590.94140625, 23286.470703125, 27668.5078125, 33037.9765625, 33540.421875, 26160.994140625, 0.0, 0.0, 0.0, 193.0, 0.0, 1.0, 1.0, 0.0, 0.0, 1.0, 1.0, 256.0, 1.0, 1.60819516780517E9, 2020-12-17 14:37:47.805
198.0, 39712.96875, 32426.703125, 28466.62109375, 23146.728515625, 27586.9921875, 32922.53125, 33435.32421875, 26051.314453125, 0.0, 0.0, 0.0, 193.0, 0.0, 1.0, 1.0, 0.0, 0.0, 1.0, 1.0, 256.0, 1.0, 1.608195167805173E9, 2020-12-17 14:37:47.805
199.0, 39703.15625, 32412.375, 28456.720703125, 23147.376953125, 27572.9765625, 32898.59375, 33408.8828125, 26020.1796875, 0.0, 0.0, 0.0, 193.0, 0.0, 1.0, 1.0, 0.0, 0.0, 1.0, 1.0, 256.0, 1.0, 1.608195167805175E9, 2020-12-17 14:37:47.805
200.0, 39821.3515625, 32541.5234375, 28582.29296875, 23275.40625, 27674.3203125, 33026.80078125, 33525.24609375, 26143.962890625, 0.0, 0.0, 0.0, 193.0, 0.0, 1.0, 1.0, 0.0, 0.0, 1.0, 1.0, 256.0, 1.0, 1.608195167805178E9, 2020-12-17 14:37:47.805
201.0, 39901.328125, 32631.087890625, 28666.513671875, 23359.203125, 27728.56640625, 33105.48046875, 33603.92578125, 26230.955078125, 0.0, 0.0, 0.0, 193.0, 0.0, 1.0, 1.0, 0.0, 0.0, 1.0, 1.0, 256.0, 1.0, 1.60819516780518E9, 2020-12-17 14:37:47.805
202.0, 39820.546875, 32539.087890625, 28581.77734375, 23280.66015625, 27652.884765625, 33031.2734375, 33528.82421875, 26148.65625, 0.0, 0.0, 0.0, 193.0, 0.0, 1.0, 1.0, 0.0, 0.0, 1.0, 1.0, 256.0, 1.0, 1.608195167805183E9, 2020-12-17 14:37:47.805
203.0, 39700.85546875, 32403.61328125, 28451.9375, 23145.208984375, 27554.46875, 32903.46484375, 33417.33203125, 26023.21875, 0.0, 0.0, 0.0, 193.0, 0.0, 1.0, 1.0, 0.0, 0.0, 1.0, 1.0, 256.0, 1.0, 1.608195167805186E9, 2020-12-17 14:37:47.805
204.0, 39683.30859375, 32383.51953125, 28430.994140625, 23117.42578125, 27550.9609375, 32872.12890625, 33401.05859375, 26011.9765625, 0.0, 0.0, 0.0, 193.0, 0.0, 1.0, 1.0, 0.0, 0.0, 1.0, 1.0, 256.0, 1.0, 1.608195167805188E9, 2020-12-17 14:37:47.805
205.0, 39810.6015625, 32517.294921875, 28562.376953125, 23254.150390625, 27659.1875, 32994.59375, 33510.875, 26134.396484375, 0.0, 0.0, 0.0, 193.0, 0.0, 1.0, 1.0, 0.0, 0.0, 1.0, 1.0, 256.0, 1.0, 1.60819516780519E9, 2020-12-17 14:37:47.805
206.0, 39893.90625, 32600.017578125, 28645.748046875, 23353.50390625, 27715.447265625, 33084.3125, 33576.07421875, 26200.71484375, 0.0, 0.0, 0.0, 193.0, 0.0, 1.0, 1.0, 0.0, 0.0, 1.0, 1.0, 256.0, 1.0, 1.608195167805192E9, 2020-12-17 14:37:47.805
207.0, 39820.5234375, 32519.060546875, 28564.8125, 23261.7734375, 27652.4375, 33001.92578125, 33515.0546875, 26128.919921875, 0.0, 0.0, 0.0, 193.0, 0.0, 1.0, 1.0, 0.0, 0.0, 1.0, 1.0, 256.0, 1.0, 1.608195167805195E9, 2020-12-17 14:37:47.805
208.0, 39714.80078125, 32397.220703125, 28449.166015625, 23136.580078125, 27582.4765625, 32899.21875, 33421.06640625, 26023.21875, 0.0, 0.0, 0.0, 193.0, 0.0, 1.0, 1.0, 0.0, 0.0, 1.0, 1.0, 256.0, 1.0, 1.608195167805197E9, 2020-12-17 14:37:47.805
209.0, 39699.9609375, 32377.640625, 28437.408203125, 23135.306640625, 27572.619140625, 32888.04296875, 33404.97265625, 25995.14453125, 0.0, 0.0, 0.0, 193.0, 0.0, 1.0, 1.0, 0.0, 0.0, 1.0, 1.0, 256.0, 1.0, 1.608195167805199E9, 2020-12-17 14:37:47.805
210.0, 39812.6796875, 32498.00390625, 28556.654296875, 23265.99609375, 27665.15625, 33009.81640625, 33503.41015625, 26102.09765625, 0.0, 0.0, 0.0, 193.0, 0.0, 1.0, 1.0, 0.0, 0.0, 1.0, 1.0, 256.0, 1.0, 1.608195167805201E9, 2020-12-17 14:37:47.805
211.0, 39892.18359375, 32590.294921875, 28641.48046875, 23348.744140625, 27721.548828125, 33085.5859375, 33577.21484375, 26183.927734375, 0.0, 0.0, 0.0, 193.0, 0.0, 1.0, 1.0, 0.0, 0.0, 1.0, 1.0, 256.0, 1.0, 1.608195167865261E9, 2020-12-17 14:37:47.865
212.0, 39816.90625, 32505.6484375, 28558.62109375, 23259.068359375, 27656.953125, 32999.421875, 33508.52734375, 26102.611328125, 0.0, 0.0, 0.0, 193.0, 0.0, 1.0, 1.0, 0.0, 0.0, 1.0, 1.0, 256.0, 1.0, 1.608195167865268E9, 2020-12-17 14:37:47.865
213.0, 39724.8828125, 32388.861328125, 28445.455078125, 23141.966796875, 27589.3828125, 32895.57421875, 33413.75390625, 26001.404296875, 0.0, 0.0, 0.0, 193.0, 0.0, 1.0, 1.0, 0.0, 0.0, 1.0, 1.0, 256.0, 1.0, 1.608195167865271E9, 2020-12-17 14:37:47.865
214.0, 39701.5703125, 32359.447265625, 28422.9921875, 23123.236328125, 27577.58203125, 32881.046875, 33397.5078125, 25974.044921875, 0.0, 0.0, 0.0, 193.0, 0.0, 1.0, 1.0, 0.0, 0.0, 1.0, 1.0, 256.0, 1.0, 1.608195167865274E9, 2020-12-17 14:37:47.865
215.0, 39820.45703125, 32491.27734375, 28556.4765625, 23276.97265625, 27669.357421875, 33009.703125, 33504.03515625, 26085.22265625, 0.0, 0.0, 0.0, 193.0, 0.0, 1.0, 1.0, 0.0, 0.0, 1.0, 1.0, 256.0, 1.0, 1.608195167865276E9, 2020-12-17 14:37:47.865
216.0, 39901.73046875, 32575.275390625, 28633.90234375, 23354.197265625, 27732.61328125, 33087.82421875, 33574.77734375, 26166.76171875, 0.0, 0.0, 0.0, 193.0, 0.0, 1.0, 1.0, 0.0, 0.0, 1.0, 1.0, 256.0, 1.0, 1.60819516786528E9, 2020-12-17 14:37:47.865
217.0, 39824.86328125, 32487.275390625, 28548.853515625, 23267.673828125, 27667.369140625, 33007.4453125, 33510.62890625, 26088.1953125, 0.0, 0.0, 0.0, 193.0, 0.0, 1.0, 1.0, 0.0, 0.0, 1.0, 1.0, 256.0, 1.0, 1.60819516786529E9, 2020-12-17 14:37:47.865
218.0, 39714.37890625, 32364.140625, 28427.529296875, 23130.634765625, 27575.7265625, 32887.328125, 33410.9375, 25967.541015625, 0.0, 0.0, 0.0, 193.0, 0.0, 1.0, 1.0, 0.0, 0.0, 1.0, 1.0, 256.0, 1.0, 1.608195167865293E9, 2020-12-17 14:37:47.865
219.0, 39697.45703125, 32344.783203125, 28408.1953125, 23112.283203125, 27569.4453125, 32873.11328125, 33380.20703125, 25941.2109375, 0.0, 0.0, 0.0, 193.0, 0.0, 1.0, 1.0, 0.0, 0.0, 1.0, 1.0, 256.0, 1.0, 1.608195167865296E9, 2020-12-17 14:37:47.865
220.0, 39822.9609375, 32480.48046875, 28546.88671875, 23268.166015625, 27684.892578125, 33012.80859375, 33500.4140625, 26060.9921875, 0.0, 0.0, 0.0, 193.0, 0.0, 1.0, 1.0, 0.0, 0.0, 1.0, 1.0, 256.0, 1.0, 1.608195167865299E9, 2020-12-17 14:37:47.865
221.0, 39914.06640625, 32571.005859375, 28637.076171875, 23363.853515625, 27747.677734375, 33104.67578125, 33579.515625, 26136.2734375, 0.0, 0.0, 0.0, 193.0, 0.0, 1.0, 1.0, 0.0, 0.0, 1.0, 1.0, 256.0, 1.0, 1.608195167865302E9, 2020-12-17 14:37:47.865
222.0, 39842.51953125, 32488.21484375, 28551.916015625, 23272.1875, 27673.6484375, 33018.62109375, 33493.171875, 26038.955078125, 0.0, 0.0, 0.0, 193.0, 0.0, 1.0, 1.0, 0.0, 0.0, 1.0, 1.0, 256.0, 1.0, 1.608195167865305E9, 2020-12-17 14:37:47.865
223.0, 39732.3046875, 32366.95703125, 28434.033203125, 23152.427734375, 27599.150390625, 32906.1484375, 33391.89453125, 25921.40625, 0.0, 0.0, 0.0, 193.0, 0.0, 1.0, 1.0, 0.0, 0.0, 1.0, 1.0, 256.0, 1.0, 1.608195167865308E9, 2020-12-17 14:37:47.865
224.0, 39706.6640625, 32342.4375, 28418.69921875, 23138.703125, 27602.927734375, 32900.78125, 33389.4609375, 25898.25, 0.0, 0.0, 0.0, 193.0, 0.0, 1.0, 1.0, 0.0, 0.0, 1.0, 1.0, 256.0, 1.0, 1.608195167865311E9, 2020-12-17 14:37:47.865
225.0, 39833.64453125, 32485.935546875, 28559.896484375, 23292.103515625, 27712.5859375, 33027.78515625, 33510.96484375, 26012.869140625, 0.0, 0.0, 0.0, 193.0, 0.0, 1.0, 1.0, 0.0, 0.0, 1.0, 1.0, 256.0, 1.0, 1.608195167865314E9, 2020-12-17 14:37:47.865
226.0, 39915.41015625, 32576.458984375, 28643.447265625, 23379.455078125, 27760.888671875, 33088.89453125, 33573.81640625, 26086.853515625, 0.0, 0.0, 0.0, 193.0, 0.0, 1.0, 1.0, 0.0, 0.0, 1.0, 1.0, 256.0, 1.0, 1.608195167925678E9, 2020-12-17 14:37:47.925
227.0, 39837.06640625, 32483.296875, 28548.83203125, 23267.806640625, 27702.19140625, 33020.74609375, 33497.62109375, 26006.208984375, 0.0, 0.0, 0.0, 193.0, 0.0, 1.0, 1.0, 0.0, 0.0, 1.0, 1.0, 256.0, 1.0, 1.608195167925685E9, 2020-12-17 14:37:47.925
228.0, 39734.62890625, 32373.439453125, 28448.517578125, 23166.083984375, 27630.0625, 32938.109375, 33420.05859375, 25919.662109375, 0.0, 0.0, 0.0, 193.0, 0.0, 1.0, 1.0, 0.0, 0.0, 1.0, 1.0, 256.0, 1.0, 1.608195167925687E9, 2020-12-17 14:37:47.925
229.0, 39707.6484375, 32350.416015625, 28434.189453125, 23151.109375, 27613.076171875, 32924.5, 33428.8203125, 25926.056640625, 0.0, 0.0, 0.0, 193.0, 0.0, 1.0, 1.0, 0.0, 0.0, 1.0, 1.0, 256.0, 1.0, 1.60819516792569E9, 2020-12-17 14:37:47.925
230.0, 39818.671875, 32474.9375, 28553.97265625, 23278.4921875, 27689.162109375, 33035.7421875, 33532.77734375, 26051.60546875, 0.0, 0.0, 0.0, 193.0, 0.0, 1.0, 1.0, 0.0, 0.0, 1.0, 1.0, 256.0, 1.0, 1.608195167925692E9, 2020-12-17 14:37:47.925
231.0, 39902.4453125, 32569.3515625, 28641.501953125, 23370.849609375, 27743.140625, 33115.0234375, 33600.34765625, 26134.12890625, 0.0, 0.0, 0.0, 193.0, 0.0, 1.0, 1.0, 0.0, 0.0, 1.0, 1.0, 256.0, 1.0, 1.608195167925694E9, 2020-12-17 14:37:47.925
232.0, 39826.31640625, 32486.78515625, 28557.66015625, 23277.44140625, 27658.96484375, 33010.1484375, 33514.515625, 26049.37109375, 0.0, 0.0, 0.0, 193.0, 0.0, 1.0, 1.0, 0.0, 0.0, 1.0, 1.0, 256.0, 1.0, 1.608195167925696E9, 2020-12-17 14:37:47.925
233.0, 39696.765625, 32349.142578125, 28421.359375, 23127.037109375, 27538.779296875, 32871.90625, 33390.62109375, 25925.072265625, 0.0, 0.0, 0.0, 193.0, 0.0, 1.0, 1.0, 0.0, 0.0, 1.0, 1.0, 256.0, 1.0, 1.608195167925698E9, 2020-12-17 14:37:47.925
234.0, 39661.15625, 32314.541015625, 28385.798828125, 23088.255859375, 27511.46484375, 32833.6171875, 33350.34375, 25879.02734375, 0.0, 0.0, 0.0, 193.0, 0.0, 1.0, 1.0, 0.0, 0.0, 1.0, 1.0, 256.0, 1.0, 1.608195167925701E9, 2020-12-17 14:37:47.925
235.0, 39787.80078125, 32448.2265625, 28516.599609375, 23226.76953125, 27623.0, 32952.23828125, 33462.88671875, 25981.912109375, 0.0, 0.0, 0.0, 193.0, 0.0, 1.0, 1.0, 0.0, 0.0, 1.0, 1.0, 256.0, 1.0, 1.608195167925703E9, 2020-12-17 14:37:47.925
236.0, 39889.32421875, 32549.458984375, 28614.43359375, 23337.90234375, 27708.451171875, 33054.7421875, 33544.9140625, 26066.291015625, 0.0, 0.0, 0.0, 193.0, 0.0, 1.0, 1.0, 0.0, 0.0, 1.0, 1.0, 256.0, 1.0, 1.608195167925705E9, 2020-12-17 14:37:47.925
237.0, 39824.34765625, 32472.634765625, 28538.572265625, 23262.21875, 27655.23046875, 32985.609375, 33475.04296875, 25988.037109375, 0.0, 0.0, 0.0, 193.0, 0.0, 1.0, 1.0, 0.0, 0.0, 1.0, 1.0, 256.0, 1.0, 1.608195167925707E9, 2020-12-17 14:37:47.925
238.0, 39715.0234375, 32353.8359375, 28421.091796875, 23130.322265625, 27573.04296875, 32867.74609375, 33368.6484375, 25863.0234375, 0.0, 0.0, 0.0, 193.0, 0.0, 1.0, 1.0, 0.0, 0.0, 1.0, 1.0, 256.0, 1.0, 1.608195167925709E9, 2020-12-17 14:37:47.925
239.0, 39688.96484375, 32324.064453125, 28394.380859375, 23103.87890625, 27560.236328125, 32843.18359375, 33336.375, 25820.353515625, 0.0, 0.0, 0.0, 193.0, 0.0, 1.0, 1.0, 0.0, 0.0, 1.0, 1.0, 256.0, 1.0, 1.608195167925711E9, 2020-12-17 14:37:47.925
240.0, 39810.64453125, 32460.029296875, 28531.173828125, 23248.853515625, 27668.978515625, 32988.2890625, 33464.80859375, 25943.244140625, 0.0, 0.0, 0.0, 193.0, 0.0, 1.0, 1.0, 0.0, 0.0, 1.0, 1.0, 256.0, 1.0, 1.608195167925721E9, 2020-12-17 14:37:47.925
241.0, 39914.26953125, 32570.580078125, 28641.322265625, 23370.736328125, 27757.958984375, 33100.98828125, 33566.796875, 26052.857421875, 0.0, 0.0, 0.0, 193.0, 0.0, 1.0, 1.0, 0.0, 0.0, 1.0, 1.0, 256.0, 1.0, 1.60819516798509E9, 2020-12-17 14:37:47.985
242.0, 39843.5703125, 32489.845703125, 28559.1796875, 23281.5546875, 27688.916015625, 33019.13671875, 33492.8359375, 25976.794921875, 0.0, 0.0, 0.0, 193.0, 0.0, 1.0, 1.0, 0.0, 0.0, 1.0, 1.0, 256.0, 1.0, 1.608195167985109E9, 2020-12-17 14:37:47.985
243.0, 39720.32421875, 32358.931640625, 28430.009765625, 23136.71484375, 27580.330078125, 32874.296875, 33373.45703125, 25849.009765625, 0.0, 0.0, 0.0, 193.0, 0.0, 1.0, 1.0, 0.0, 0.0, 1.0, 1.0, 256.0, 1.0, 1.608195167985116E9, 2020-12-17 14:37:47.985
244.0, 39698.953125, 32335.552734375, 28409.71484375, 23119.59375, 27574.564453125, 32854.55859375, 33357.51953125, 25825.62890625, 0.0, 0.0, 0.0, 193.0, 0.0, 1.0, 1.0, 0.0, 0.0, 1.0, 1.0, 256.0, 1.0, 1.608195167985123E9, 2020-12-17 14:37:47.985
245.0, 39813.44140625, 32462.0859375, 28533.095703125, 23247.869140625, 27676.2421875, 32977.58203125, 33463.578125, 25934.99609375, 0.0, 0.0, 0.0, 193.0, 0.0, 1.0, 1.0, 0.0, 0.0, 1.0, 1.0, 256.0, 1.0, 1.60819516798513E9, 2020-12-17 14:37:47.985
246.0, 39904.58984375, 32562.84765625, 28629.701171875, 23354.533203125, 27752.86328125, 33075.57421875, 33543.015625, 26019.84375, 0.0, 0.0, 0.0, 193.0, 0.0, 1.0, 1.0, 0.0, 0.0, 1.0, 1.0, 256.0, 1.0, 1.608195167985137E9, 2020-12-17 14:37:47.985
247.0, 39838.31640625, 32488.505859375, 28556.36328125, 23280.97265625, 27686.232421875, 33005.43359375, 33477.32421875, 25949.546875, 0.0, 0.0, 0.0, 193.0, 0.0, 1.0, 1.0, 0.0, 0.0, 1.0, 1.0, 256.0, 1.0, 1.608195167985144E9, 2020-12-17 14:37:47.985
248.0, 39728.7265625, 32361.234375, 28428.84765625, 23136.201171875, 27593.294921875, 32876.93359375, 33369.12109375, 25836.89453125, 0.0, 0.0, 0.0, 193.0, 0.0, 1.0, 1.0, 0.0, 0.0, 1.0, 1.0, 256.0, 1.0, 1.608195167985151E9, 2020-12-17 14:37:47.985
249.0, 39698.796875, 32327.974609375, 28402.740234375, 23111.345703125, 27581.3359375, 32854.29296875, 33349.60546875, 25805.6015625, 0.0, 0.0, 0.0, 193.0, 0.0, 1.0, 1.0, 0.0, 0.0, 1.0, 1.0, 256.0, 1.0, 1.608195167985158E9, 2020-12-17 14:37:47.985
250.0, 39812.2109375, 32459.359375, 28535.263671875, 23256.296875, 27677.314453125, 32975.19140625, 33463.21875, 25918.166015625, 0.0, 0.0, 0.0, 193.0, 0.0, 1.0, 1.0, 0.0, 0.0, 1.0, 1.0, 256.0, 1.0, 1.608195167985165E9, 2020-12-17 14:37:47.985
251.0, 39913.30859375, 32570.982421875, 28642.10546875, 23369.6875, 27751.857421875, 33091.7109375, 33553.67578125, 26013.49609375, 0.0, 0.0, 0.0, 193.0, 0.0, 1.0, 1.0, 0.0, 0.0, 1.0, 1.0, 256.0, 1.0, 1.608195167985172E9, 2020-12-17 14:37:47.985
252.0, 39849.62890625, 32501.669921875, 28573.0390625, 23300.306640625, 27693.787109375, 33031.5625, 33491.5859375, 25947.916015625, 0.0, 0.0, 0.0, 193.0, 0.0, 1.0, 1.0, 0.0, 0.0, 1.0, 1.0, 256.0, 1.0, 1.608195167985179E9, 2020-12-17 14:37:47.985
253.0, 39745.7578125, 32380.92578125, 28455.087890625, 23179.830078125, 27614.015625, 32919.671875, 33384.3203125, 25837.587890625, 0.0, 0.0, 0.0, 193.0, 0.0, 1.0, 1.0, 0.0, 0.0, 1.0, 1.0, 256.0, 1.0, 1.608195167985187E9, 2020-12-17 14:37:47.985
254.0, 39706.7109375, 32338.703125, 28414.318359375, 23128.220703125, 27590.052734375, 32873.671875, 33346.9453125, 25797.0859375, 0.0, 0.0, 0.0, 193.0, 0.0, 1.0, 1.0, 0.0, 0.0, 1.0, 1.0, 256.0, 1.0, 1.608195167985194E9, 2020-12-17 14:37:47.985
255.0, 39811.3828125, 32458.263671875, 28532.626953125, 23249.3671875, 27679.080078125, 32988.89453125, 33452.0234375, 25901.22265625, 0.0, 0.0, 0.0, 193.0, 0.0, 1.0, 1.0, 0.0, 0.0, 1.0, 1.0, 256.0, 1.0, 1.608195167985201E9, 2020-12-17 14:37:47.985
0.0, 39909.3046875, 32569.3515625, 28642.41796875, 23366.35546875, 27750.44921875, 33094.03515625, 33551.84375, 26000.732421875, 0.0, 0.0, 0.0, 193.0, 0.0, 1.0, 1.0, 0.0, 0.0, 1.0, 1.0, 256.0, 1.0, 1.608195168044843E9, 2020-12-17 14:37:48.044
1.0, 39852.3984375, 32497.267578125, 28567.763671875, 23289.0859375, 27697.85546875, 33020.25390625, 33481.30078125, 25933.923828125, 0.0, 0.0, 0.0, 193.0, 0.0, 1.0, 1.0, 0.0, 0.0, 1.0, 1.0, 256.0, 1.0, 1.608195168044847E9, 2020-12-17 14:37:48.044
2.0, 39740.9765625, 32375.673828125, 28450.259765625, 23168.38671875, 27614.439453125, 32913.41015625, 33382.53125, 25829.876953125, 0.0, 0.0, 0.0, 193.0, 0.0, 1.0, 1.0, 0.0, 0.0, 1.0, 1.0, 256.0, 1.0, 1.608195168044849E9, 2020-12-17 14:37:48.044
3.0, 39702.328125, 32338.859375, 28415.279296875, 23130.09765625, 27589.40625, 32878.20703125, 33351.23828125, 25790.24609375, 0.0, 0.0, 0.0, 193.0, 0.0, 1.0, 1.0, 0.0, 0.0, 1.0, 1.0, 256.0, 1.0, 1.60819516804485E9, 2020-12-17 14:37:48.044
4.0, 39815.13671875, 32463.29296875, 28537.029296875, 23263.046875, 27679.125, 32981.60546875, 33450.078125, 25894.583984375, 0.0, 0.0, 0.0, 193.0, 0.0, 1.0, 1.0, 0.0, 0.0, 1.0, 1.0, 256.0, 1.0, 1.608195168044851E9, 2020-12-17 14:37:48.044
5.0, 39911.5859375, 32570.71484375, 28640.33984375, 23366.53515625, 27756.484375, 33076.625, 33542.90234375, 25997.89453125, 0.0, 0.0, 0.0, 193.0, 0.0, 1.0, 1.0, 0.0, 0.0, 1.0, 1.0, 256.0, 1.0, 1.608195168044853E9, 2020-12-17 14:37:48.044
6.0, 39839.27734375, 32490.2265625, 28558.80078125, 23276.16796875, 27690.48046875, 33009.14453125, 33476.609375, 25928.044921875, 0.0, 0.0, 0.0, 193.0, 0.0, 1.0, 1.0, 0.0, 0.0, 1.0, 1.0, 256.0, 1.0, 1.608195168044854E9, 2020-12-17 14:37:48.044
7.0, 39734.0234375, 32374.802734375, 28450.259765625, 23163.3125, 27612.875, 32915.35546875, 33394.375, 25826.142578125, 0.0, 0.0, 0.0, 193.0, 0.0, 1.0, 1.0, 0.0, 0.0, 1.0, 1.0, 256.0, 1.0, 1.608195168044856E9, 2020-12-17 14:37:48.044
8.0, 39705.03515625, 32338.033203125, 28416.599609375, 23131.4609375, 27600.826171875, 32881.203125, 33357.875, 25788.1015625, 0.0, 0.0, 0.0, 193.0, 0.0, 1.0, 1.0, 0.0, 0.0, 1.0, 1.0, 256.0, 1.0, 1.608195168044863E9, 2020-12-17 14:37:48.044
9.0, 39798.7109375, 32447.177734375, 28520.51171875, 23236.91796875, 27673.6484375, 32968.0859375, 33437.3828125, 25878.603515625, 0.0, 0.0, 0.0, 193.0, 0.0, 1.0, 1.0, 0.0, 0.0, 1.0, 1.0, 256.0, 1.0, 1.608195168044865E9, 2020-12-17 14:37:48.044
10.0, 39899.5390625, 32554.533203125, 28623.083984375, 23345.859375, 27740.79296875, 33066.921875, 33523.12109375, 25975.587890625, 0.0, 0.0, 0.0, 193.0, 0.0, 1.0, 1.0, 0.0, 0.0, 1.0, 1.0, 256.0, 1.0, 1.608195168044866E9, 2020-12-17 14:37:48.044
11.0, 39844.0390625, 32489.48828125, 28560.142578125, 23279.318359375, 27697.521484375, 33019.58203125, 33479.1328125, 25924.580078125, 0.0, 0.0, 0.0, 193.0, 0.0, 1.0, 1.0, 0.0, 0.0, 1.0, 1.0, 256.0, 1.0, 1.608195168044867E9, 2020-12-17 14:37:48.044
12.0, 39742.046875, 32380.501953125, 28456.228515625, 23172.544921875, 27618.1953125, 32924.69921875, 33394.30859375, 25820.376953125, 0.0, 0.0, 0.0, 193.0, 0.0, 1.0, 1.0, 0.0, 0.0, 1.0, 1.0, 256.0, 1.0, 1.608195168044869E9, 2020-12-17 14:37:48.044
13.0, 39704.05078125, 32339.330078125, 28417.537109375, 23133.00390625, 27591.953125, 32885.0703125, 33353.0703125, 25771.8515625, 0.0, 0.0, 0.0, 193.0, 0.0, 1.0, 1.0, 0.0, 0.0, 1.0, 1.0, 256.0, 1.0, 1.60819516804487E9, 2020-12-17 14:37:48.044
14.0, 39813.70703125, 32459.044921875, 28536.046875, 23259.470703125, 27690.369140625, 33002.41796875, 33454.8828125, 25880.546875, 0.0, 0.0, 0.0, 193.0, 0.0, 1.0, 1.0, 0.0, 0.0, 1.0, 1.0, 256.0, 1.0, 1.608195168044872E9, 2020-12-17 14:37:48.044
15.0, 39914.58203125, 32569.732421875, 28644.02734375, 23378.248046875, 27768.130859375, 33102.75390625, 33550.0546875, 25991.79296875, 0.0, 0.0, 0.0, 193.0, 0.0, 1.0, 1.0, 0.0, 0.0, 1.0, 1.0, 256.0, 1.0, 1.60819516810525E9, 2020-12-17 14:37:48.105
16.0, 39839.90625, 32489.3984375, 28563.583984375, 23293.35546875, 27698.34765625, 33026.578125, 33478.48828125, 25918.5, 0.0, 0.0, 0.0, 193.0, 0.0, 1.0, 1.0, 0.0, 0.0, 1.0, 1.0, 256.0, 1.0, 1.608195168105255E9, 2020-12-17 14:37:48.105
17.0, 39728.83984375, 32370.33203125, 28446.03515625, 23163.291015625, 27613.5, 32912.51953125, 33381.7265625, 25807.234375, 0.0, 0.0, 0.0, 193.0, 0.0, 1.0, 1.0, 0.0, 0.0, 1.0, 1.0, 256.0, 1.0, 1.608195168105256E9, 2020-12-17 14:37:48.105
18.0, 39695.19921875, 32334.880859375, 28414.20703125, 23125.830078125, 27596.982421875, 32879.97265625, 33361.98828125, 25771.537109375, 0.0, 0.0, 0.0, 193.0, 0.0, 1.0, 1.0, 0.0, 0.0, 1.0, 1.0, 256.0, 1.0, 1.608195168105258E9, 2020-12-17 14:37:48.105
19.0, 39791.82421875, 32438.705078125, 28518.388671875, 23239.666015625, 27675.1015625, 32985.13671875, 33444.4453125, 25864.185546875, 0.0, 0.0, 0.0, 193.0, 0.0, 1.0, 1.0, 0.0, 0.0, 1.0, 1.0, 256.0, 1.0, 1.608195168105259E9, 2020-12-17 14:37:48.105
20.0, 39885.859375, 32541.12109375, 28616.177734375, 23342.216796875, 27742.24609375, 33073.31640625, 33514.60546875, 25959.94140625, 0.0, 0.0, 0.0, 193.0, 0.0, 1.0, 1.0, 0.0, 0.0, 1.0, 1.0, 256.0, 1.0, 1.608195168105261E9, 2020-12-17 14:37:48.105
21.0, 39823.56640625, 32477.5078125, 28552.095703125, 23273.841796875, 27680.130859375, 33000.3828125, 33459.0859375, 25899.703125, 0.0, 0.0, 0.0, 193.0, 0.0, 1.0, 1.0, 0.0, 0.0, 1.0, 1.0, 256.0, 1.0, 1.608195168105262E9, 2020-12-17 14:37:48.105
22.0, 39730.89453125, 32365.83984375, 28447.578125, 23168.3203125, 27613.43359375, 32911.35546875, 33377.078125, 25799.65625, 0.0, 0.0, 0.0, 193.0, 0.0, 1.0, 1.0, 0.0, 0.0, 1.0, 1.0, 256.0, 1.0, 1.608195168105264E9, 2020-12-17 14:37:48.105
23.0, 39690.05859375, 32324.8671875, 28407.412109375, 23122.900390625, 27592.04296875, 32877.42578125, 33341.6484375, 25758.015625, 0.0, 0.0, 0.0, 193.0, 0.0, 1.0, 1.0, 0.0, 0.0, 1.0, 1.0, 256.0, 1.0, 1.608195168105265E9, 2020-12-17 14:37:48.105
24.0, 39788.359375, 32439.0625, 28520.623046875, 23240.091796875, 27675.326171875, 32983.59765625, 33443.640625, 25868.544921875, 0.0, 0.0, 0.0, 193.0, 0.0, 1.0, 1.0, 0.0, 0.0, 1.0, 1.0, 256.0, 1.0, 1.608195168105267E9, 2020-12-17 14:37:48.105
25.0, 39890.2421875, 32553.728515625, 28629.767578125, 23355.359375, 27747.38671875, 33084.89453125, 33537.5625, 25969.88671875, 0.0, 0.0, 0.0, 193.0, 0.0, 1.0, 1.0, 0.0, 0.0, 1.0, 1.0, 256.0, 1.0, 1.608195168105269E9, 2020-12-17 14:37:48.105
26.0, 39837.3125, 32491.478515625, 28568.970703125, 23292.126953125, 27696.291015625, 33021.81640625, 33482.890625, 25915.23828125, 0.0, 0.0, 0.0, 193.0, 0.0, 1.0, 1.0, 0.0, 0.0, 1.0, 1.0, 256.0, 1.0, 1.60819516810527E9, 2020-12-17 14:37:48.105
27.0, 39737.77734375, 32377.685546875, 28457.814453125, 23178.265625, 27625.794921875, 32921.703125, 33381.43359375, 25810.138671875, 0.0, 0.0, 0.0, 193.0, 0.0, 1.0, 1.0, 0.0, 0.0, 1.0, 1.0, 256.0, 1.0, 1.608195168105272E9, 2020-12-17 14:37:48.105
28.0, 39690.39453125, 32328.310546875, 28409.490234375, 23123.416015625, 27592.177734375, 32867.25390625, 33339.45703125, 25766.798828125, 0.0, 0.0, 0.0, 193.0, 0.0, 1.0, 1.0, 0.0, 0.0, 1.0, 1.0, 256.0, 1.0, 1.608195168105273E9, 2020-12-17 14:37:48.105
29.0, 39784.09375, 32438.169921875, 28518.232421875, 23236.849609375, 27667.255859375, 32965.26953125, 33431.078125, 25854.10546875, 0.0, 0.0, 0.0, 193.0, 0.0, 1.0, 1.0, 0.0, 0.0, 1.0, 1.0, 256.0, 1.0, 1.608195168105275E9, 2020-12-17 14:37:48.105
30.0, 39885.2578125, 32547.580078125, 28624.134765625, 23348.966796875, 27745.533203125, 33072.06640625, 33522.16015625, 25955.515625, 0.0, 0.0, 0.0, 193.0, 0.0, 1.0, 1.0, 0.0, 0.0, 1.0, 1.0, 256.0, 1.0, 1.608195168165482E9, 2020-12-17 14:37:48.165
31.0, 39841.4453125, 32493.84765625, 28570.1328125, 23294.138671875, 27701.72265625, 33014.8671875, 33483.0, 25917.31640625, 0.0, 0.0, 0.0, 193.0, 0.0, 1.0, 1.0, 0.0, 0.0, 1.0, 1.0, 256.0, 1.0, 1.60819516816552E9, 2020-12-17 14:37:48.165
32.0, 39748.12890625, 32390.224609375, 28471.5625, 23189.107421875, 27628.41015625, 32924.85546875, 33400.03125, 25818.41015625, 0.0, 0.0, 0.0, 193.0, 0.0, 1.0, 1.0, 0.0, 0.0, 1.0, 1.0, 256.0, 1.0, 1.608195168165528E9, 2020-12-17 14:37:48.165
33.0, 39708.41015625, 32342.638671875, 28427.037109375, 23144.76171875, 27607.287109375, 32889.83203125, 33359.0390625, 25775.3828125, 0.0, 0.0, 0.0, 193.0, 0.0, 1.0, 1.0, 0.0, 0.0, 1.0, 1.0, 256.0, 1.0, 1.608195168165537E9, 2020-12-17 14:37:48.165
34.0, 39801.16796875, 32443.220703125, 28527.396484375, 23251.892578125, 27684.064453125, 32996.26953125, 33440.01953125, 25870.51171875, 0.0, 0.0, 0.0, 193.0, 0.0, 1.0, 1.0, 0.0, 0.0, 1.0, 1.0, 256.0, 1.0, 1.608195168165546E9, 2020-12-17 14:37:48.165
35.0, 39895.203125, 32550.0390625, 28628.42578125, 23355.6953125, 27749.64453125, 33090.39453125, 33527.14453125, 25969.5078125, 0.0, 0.0, 0.0, 193.0, 0.0, 1.0, 1.0, 0.0, 0.0, 1.0, 1.0, 256.0, 1.0, 1.608195168165555E9, 2020-12-17 14:37:48.165
36.0, 39844.2421875, 32495.099609375, 28571.763671875, 23295.45703125, 27697.095703125, 33025.6640625, 33479.58203125, 25920.22265625, 0.0, 0.0, 0.0, 193.0, 0.0, 1.0, 1.0, 0.0, 0.0, 1.0, 1.0, 256.0, 1.0, 1.608195168165564E9, 2020-12-17 14:37:48.165
37.0, 39740.75390625, 32383.20703125, 28463.42578125, 23177.73046875, 27608.671875, 32913.0546875, 33389.390625, 25821.271484375, 0.0, 0.0, 0.0, 193.0, 0.0, 1.0, 1.0, 0.0, 0.0, 1.0, 1.0, 256.0, 1.0, 1.608195168165572E9, 2020-12-17 14:37:48.165
38.0, 39698.57421875, 32334.0546875, 28416.3984375, 23129.494140625, 27582.900390625, 32870.09375, 33339.59375, 25772.56640625, 0.0, 0.0, 0.0, 193.0, 0.0, 1.0, 1.0, 0.0, 0.0, 1.0, 1.0, 256.0, 1.0, 1.608195168165581E9, 2020-12-17 14:37:48.165
39.0, 39790.1953125, 32434.435546875, 28515.19140625, 23238.4140625, 27670.185546875, 32971.1015625, 33421.6015625, 25862.93359375, 0.0, 0.0, 0.0, 193.0, 0.0, 1.0, 1.0, 0.0, 0.0, 1.0, 1.0, 256.0, 1.0, 1.608195168165589E9, 2020-12-17 14:37:48.165
40.0, 39876.31640625, 32534.55078125, 28612.9140625, 23337.142578125, 27726.7578125, 33057.42578125, 33514.00390625, 25961.6171875, 0.0, 0.0, 0.0, 193.0, 0.0, 1.0, 1.0, 0.0, 0.0, 1.0, 1.0, 256.0, 1.0, 1.608195168165597E9, 2020-12-17 14:37:48.165
41.0, 39834.18359375, 32487.34375, 28567.451171875, 23286.13671875, 27682.232421875, 33007.82421875, 33479.2890625, 25921.138671875, 0.0, 0.0, 0.0, 193.0, 0.0, 1.0, 1.0, 0.0, 0.0, 1.0, 1.0, 256.0, 1.0, 1.608195168165607E9, 2020-12-17 14:37:48.165
42.0, 39742.33984375, 32381.10546875, 28460.720703125, 23174.556640625, 27608.515625, 32901.5859375, 33376.203125, 25812.486328125, 0.0, 0.0, 0.0, 193.0, 0.0, 1.0, 1.0, 0.0, 0.0, 1.0, 1.0, 256.0, 1.0, 1.608195168165615E9, 2020-12-17 14:37:48.165
43.0, 39699.1328125, 32335.126953125, 28416.95703125, 23126.56640625, 27574.541015625, 32860.1015625, 33337.76171875, 25766.21875, 0.0, 0.0, 0.0, 193.0, 0.0, 1.0, 1.0, 0.0, 0.0, 1.0, 1.0, 256.0, 1.0, 1.608195168165624E9, 2020-12-17 14:37:48.165
44.0, 39777.56640625, 32426.255859375, 28509.4921875, 23225.943359375, 27640.30078125, 32959.078125, 33426.25, 25853.390625, 0.0, 0.0, 0.0, 193.0, 0.0, 1.0, 1.0, 0.0, 0.0, 1.0, 1.0, 256.0, 1.0, 1.608195168165633E9, 2020-12-17 14:37:48.165
45.0, 39860.1328125, 32518.1875, 28596.6640625, 23319.10546875, 27700.76171875, 33042.5390625, 33495.49609375, 25939.802734375, 0.0, 0.0, 0.0, 193.0, 0.0, 1.0, 1.0, 0.0, 0.0, 1.0, 1.0, 256.0, 1.0, 1.608195168225648E9, 2020-12-17 14:37:48.225
46.0, 39825.64453125, 32476.0546875, 28552.5859375, 23274.087890625, 27666.921875, 32996.9609375, 33453.921875, 25904.91015625, 0.0, 0.0, 0.0, 193.0, 0.0, 1.0, 1.0, 0.0, 0.0, 1.0, 1.0, 256.0, 1.0, 1.608195168225654E9, 2020-12-17 14:37:48.225
47.0, 39736.953125, 32375.763671875, 28456.205078125, 23172.58984375, 27596.021484375, 32899.48828125, 33375.48828125, 25812.53125, 0.0, 0.0, 0.0, 193.0, 0.0, 1.0, 1.0, 0.0, 0.0, 1.0, 1.0, 256.0, 1.0, 1.608195168225657E9, 2020-12-17 14:37:48.225
48.0, 39690.4609375, 32327.640625, 28410.1171875, 23120.62109375, 27558.224609375, 32854.515625, 33333.66796875, 25761.591796875, 0.0, 0.0, 0.0, 193.0, 0.0, 1.0, 1.0, 0.0, 0.0, 1.0, 1.0, 256.0, 1.0, 1.608195168225659E9, 2020-12-17 14:37:48.225
49.0, 39773.8984375, 32421.00390625, 28502.1171875, 23214.23046875, 27625.50390625, 32932.6796875, 33412.70703125, 25851.712890625, 0.0, 0.0, 0.0, 193.0, 0.0, 1.0, 1.0, 0.0, 0.0, 1.0, 1.0, 256.0, 1.0, 1.608195168225662E9, 2020-12-17 14:37:48.225
50.0, 39867.3984375, 32524.826171875, 28599.97265625, 23318.501953125, 27692.423828125, 33026.0859375, 33494.19921875, 25944.98828125, 0.0, 0.0, 0.0, 193.0, 0.0, 1.0, 1.0, 0.0, 0.0, 1.0, 1.0, 256.0, 1.0, 1.608195168225664E9, 2020-12-17 14:37:48.225
51.0, 39827.69921875, 32484.728515625, 28557.52734375, 23270.580078125, 27664.595703125, 32989.23046875, 33453.49609375, 25906.921875, 0.0, 0.0, 0.0, 193.0, 0.0, 1.0, 1.0, 0.0, 0.0, 1.0, 1.0, 256.0, 1.0, 1.608195168225667E9, 2020-12-17 14:37:48.225
52.0, 39733.77734375, 32377.88671875, 28457.5703125, 23168.923828125, 27602.771484375, 32903.64453125, 33379.06640625, 25820.0859375, 0.0, 0.0, 0.0, 193.0, 0.0, 1.0, 1.0, 0.0, 0.0, 1.0, 1.0, 256.0, 1.0, 1.608195168225669E9, 2020-12-17 14:37:48.225
53.0, 39691.5546875, 32326.96875, 28411.255859375, 23121.248046875, 27574.541015625, 32864.171875, 33338.453125, 25775.203125, 0.0, 0.0, 0.0, 193.0, 0.0, 1.0, 1.0, 0.0, 0.0, 1.0, 1.0, 256.0, 1.0, 1.608195168225672E9, 2020-12-17 14:37:48.225
54.0, 39771.1484375, 32417.158203125, 28500.150390625, 23213.828125, 27635.607421875, 32947.296875, 33416.16796875, 25853.099609375, 0.0, 0.0, 0.0, 193.0, 0.0, 1.0, 1.0, 0.0, 0.0, 1.0, 1.0, 256.0, 1.0, 1.608195168225682E9, 2020-12-17 14:37:48.225
55.0, 39862.61328125, 32518.904296875, 28598.384765625, 23317.583984375, 27695.0625, 33031.13671875, 33502.3125, 25941.1875, 0.0, 0.0, 0.0, 193.0, 0.0, 1.0, 1.0, 0.0, 0.0, 1.0, 1.0, 256.0, 1.0, 1.608195168225684E9, 2020-12-17 14:37:48.225
56.0, 39833.01953125, 32483.453125, 28561.75, 23278.8046875, 27664.3515625, 32992.046875, 33464.71875, 25909.939453125, 0.0, 0.0, 0.0, 193.0, 0.0, 1.0, 1.0, 0.0, 0.0, 1.0, 1.0, 256.0, 1.0, 1.608195168225687E9, 2020-12-17 14:37:48.225
57.0, 39746.05078125, 32384.94921875, 28464.587890625, 23178.310546875, 27603.642578125, 32912.0703125, 33383.84765625, 25825.919921875, 0.0, 0.0, 0.0, 193.0, 0.0, 1.0, 1.0, 0.0, 0.0, 1.0, 1.0, 256.0, 1.0, 1.608195168225689E9, 2020-12-17 14:37:48.225
58.0, 39701.1875, 32338.435546875, 28421.42578125, 23132.244140625, 27583.146484375, 32874.18359375, 33348.15234375, 25784.412109375, 0.0, 0.0, 0.0, 193.0, 0.0, 1.0, 1.0, 0.0, 0.0, 1.0, 1.0, 256.0, 1.0, 1.608195168225692E9, 2020-12-17 14:37:48.225
59.0, 39781.69921875, 32423.39453125, 28507.591796875, 23226.03125, 27651.69921875, 32960.171875, 33423.74609375, 25860.185546875, 0.0, 0.0, 0.0, 193.0, 0.0, 1.0, 1.0, 0.0, 0.0, 1.0, 1.0, 256.0, 1.0, 1.608195168225694E9, 2020-12-17 14:37:48.225
60.0, 39866.3671875, 32517.830078125, 28598.296875, 23321.51953125, 27709.14453125, 33045.93359375, 33496.03125, 25942.171875, 0.0, 0.0, 0.0, 193.0, 0.0, 1.0, 1.0, 0.0, 0.0, 1.0, 1.0, 256.0, 1.0, 1.608195168284971E9, 2020-12-17 14:37:48.284
61.0, 39831.12109375, 32482.470703125, 28561.974609375, 23281.12890625, 27675.4375, 33002.8203125, 33469.8828125, 25916.48828125, 0.0, 0.0, 0.0, 193.0, 0.0, 1.0, 1.0, 0.0, 0.0, 1.0, 1.0, 256.0, 1.0, 1.60819516828498E9, 2020-12-17 14:37:48.284
62.0, 39758.85546875, 32391.095703125, 28474.1328125, 23193.376953125, 27630.62109375, 32925.3046875, 33391.4921875, 25831.26171875, 0.0, 0.0, 0.0, 193.0, 0.0, 1.0, 1.0, 0.0, 0.0, 1.0, 1.0, 256.0, 1.0, 1.608195168284982E9, 2020-12-17 14:37:48.284
63.0, 39715.2265625, 32339.642578125, 28424.287109375, 23140.939453125, 27595.439453125, 32878.20703125, 33344.1953125, 25774.48828125, 0.0, 0.0, 0.0, 193.0, 0.0, 1.0, 1.0, 0.0, 0.0, 1.0, 1.0, 256.0, 1.0, 1.608195168284985E9, 2020-12-17 14:37:48.284
64.0, 39772.04296875, 32412.666015625, 28496.05859375, 23212.53125, 27637.439453125, 32935.6953125, 33409.44140625, 25847.220703125, 0.0, 0.0, 0.0, 193.0, 0.0, 1.0, 1.0, 0.0, 0.0, 1.0, 1.0, 256.0, 1.0, 1.608195168284988E9, 2020-12-17 14:37:48.284
65.0, 39859.41796875, 32513.650390625, 28592.998046875, 23313.046875, 27702.326171875, 33023.16015625, 33495.00390625, 25946.529296875, 0.0, 0.0, 0.0, 193.0, 0.0, 1.0, 1.0, 0.0, 0.0, 1.0, 1.0, 256.0, 1.0, 1.60819516828499E9, 2020-12-17 14:37:48.284
66.0, 39831.23046875, 32482.626953125, 28560.298828125, 23274.982421875, 27666.720703125, 32984.6484375, 33467.95703125, 25912.107421875, 0.0, 0.0, 0.0, 193.0, 0.0, 1.0, 1.0, 0.0, 0.0, 1.0, 1.0, 256.0, 1.0, 1.608195168284992E9, 2020-12-17 14:37:48.284
67.0, 39747.5703125, 32388.4140625, 28468.72265625, 23179.384765625, 27609.701171875, 32904.1796875, 33389.16796875, 25825.09375, 0.0, 0.0, 0.0, 193.0, 0.0, 1.0, 1.0, 0.0, 0.0, 1.0, 1.0, 256.0, 1.0, 1.608195168284995E9, 2020-12-17 14:37:48.284
68.0, 39696.09375, 32330.076171875, 28414.005859375, 23122.7890625, 27580.978515625, 32856.70703125, 33346.54296875, 25779.853515625, 0.0, 0.0, 0.0, 193.0, 0.0, 1.0, 1.0, 0.0, 0.0, 1.0, 1.0, 256.0, 1.0, 1.608195168284997E9, 2020-12-17 14:37:48.284
69.0, 39775.0625, 32415.66015625, 28500.685546875, 23214.833984375, 27644.45703125, 32934.9609375, 33422.00390625, 25855.447265625, 0.0, 0.0, 0.0, 193.0, 0.0, 1.0, 1.0, 0.0, 0.0, 1.0, 1.0, 256.0, 1.0, 1.608195168284999E9, 2020-12-17 14:37:48.284
70.0, 39871.0390625, 32518.2109375, 28599.771484375, 23322.859375, 27707.646484375, 33026.890625, 33504.01171875, 25936.91796875, 0.0, 0.0, 0.0, 193.0, 0.0, 1.0, 1.0, 0.0, 0.0, 1.0, 1.0, 256.0, 1.0, 1.608195168285002E9, 2020-12-17 14:37:48.285
71.0, 39844.12890625, 32489.33203125, 28567.115234375, 23288.392578125, 27677.962890625, 32999.734375, 33476.67578125, 25911.37109375, 0.0, 0.0, 0.0, 193.0, 0.0, 1.0, 1.0, 0.0, 0.0, 1.0, 1.0, 256.0, 1.0, 1.608195168285005E9, 2020-12-17 14:37:48.285
72.0, 39760.04296875, 32395.923828125, 28474.646484375, 23190.0234375, 27614.037109375, 32915.4921875, 33394.9140625, 25824.869140625, 0.0, 0.0, 0.0, 193.0, 0.0, 1.0, 1.0, 0.0, 0.0, 1.0, 1.0, 256.0, 1.0, 1.608195168285007E9, 2020-12-17 14:37:48.285
73.0, 39713.73046875, 32346.146484375, 28429.138671875, 23139.93359375, 27589.115234375, 32870.875, 33355.8203125, 25778.533203125, 0.0, 0.0, 0.0, 193.0, 0.0, 1.0, 1.0, 0.0, 0.0, 1.0, 1.0, 256.0, 1.0, 1.60819516828501E9, 2020-12-17 14:37:48.285
74.0, 39782.39453125, 32422.880859375, 28506.05078125, 23224.892578125, 27651.69921875, 32948.59375, 33417.5546875, 25849.478515625, 0.0, 0.0, 0.0, 193.0, 0.0, 1.0, 1.0, 0.0, 0.0, 1.0, 1.0, 256.0, 1.0, 1.608195168285012E9, 2020-12-17 14:37:48.285
75.0, 39871.59765625, 32524.513671875, 28604.041015625, 23329.05078125, 27712.1171875, 33040.37109375, 33499.71875, 25940.919921875, 0.0, 0.0, 0.0, 193.0, 0.0, 1.0, 1.0, 0.0, 0.0, 1.0, 1.0, 256.0, 1.0, 1.608195168344859E9, 2020-12-17 14:37:48.344
76.0, 39848.0625, 32500.5078125, 28579.38671875, 23299.078125, 27686.5234375, 33011.7578125, 33484.34375, 25922.859375, 0.0, 0.0, 0.0, 193.0, 0.0, 1.0, 1.0, 0.0, 0.0, 1.0, 1.0, 256.0, 1.0, 1.608195168344876E9, 2020-12-17 14:37:48.344
77.0, 39761.2265625, 32398.986328125, 28480.927734375, 23194.13671875, 27621.927734375, 32917.32421875, 33399.3828125, 25838.5703125, 0.0, 0.0, 0.0, 193.0, 0.0, 1.0, 1.0, 0.0, 0.0, 1.0, 1.0, 256.0, 1.0, 1.608195168344884E9, 2020-12-17 14:37:48.344
78.0, 39712.05078125, 32339.552734375, 28426.298828125, 23135.57421875, 27590.724609375, 32860.171875, 33353.046875, 25785.91015625, 0.0, 0.0, 0.0, 193.0, 0.0, 1.0, 1.0, 0.0, 0.0, 1.0, 1.0, 256.0, 1.0, 1.60819516834491E9, 2020-12-17 14:37:48.344
79.0, 39785.45703125, 32422.1875, 28510.3203125, 23226.478515625, 27649.44140625, 32947.4296875, 33429.84765625, 25860.05078125, 0.0, 0.0, 0.0, 193.0, 0.0, 1.0, 1.0, 0.0, 0.0, 1.0, 1.0, 256.0, 1.0, 1.608195168344983E9, 2020-12-17 14:37:48.344
80.0, 39879.69140625, 32527.0625, 28608.869140625, 23332.783203125, 27716.630859375, 33042.55859375, 33508.66015625, 25953.32421875, 0.0, 0.0, 0.0, 193.0, 0.0, 1.0, 1.0, 0.0, 0.0, 1.0, 1.0, 256.0, 1.0, 1.608195168344991E9, 2020-12-17 14:37:48.344
81.0, 39854.140625, 32501.87109375, 28580.2578125, 23303.66015625, 27692.89453125, 33013.12109375, 33486.04296875, 25926.615234375, 0.0, 0.0, 0.0, 193.0, 0.0, 1.0, 1.0, 0.0, 0.0, 1.0, 1.0, 256.0, 1.0, 1.608195168344999E9, 2020-12-17 14:37:48.344
82.0, 39765.203125, 32402.294921875, 28483.787109375, 23200.23828125, 27628.275390625, 32919.625, 33401.015625, 25833.318359375, 0.0, 0.0, 0.0, 193.0, 0.0, 1.0, 1.0, 0.0, 0.0, 1.0, 1.0, 256.0, 1.0, 1.608195168345008E9, 2020-12-17 14:37:48.345
83.0, 39711.1796875, 32346.548828125, 28433.451171875, 23143.6875, 27598.904296875, 32868.44140625, 33364.29296875, 25784.76953125, 0.0, 0.0, 0.0, 193.0, 0.0, 1.0, 1.0, 0.0, 0.0, 1.0, 1.0, 256.0, 1.0, 1.608195168345016E9, 2020-12-17 14:37:48.345
84.0, 39781.4765625, 32422.232421875, 28507.033203125, 23227.640625, 27662.98828125, 32949.0625, 33421.84765625, 25848.8984375, 0.0, 0.0, 0.0, 193.0, 0.0, 1.0, 1.0, 0.0, 0.0, 1.0, 1.0, 256.0, 1.0, 1.608195168345024E9, 2020-12-17 14:37:48.345
85.0, 39865.71875, 32519.998046875, 28597.291015625, 23324.625, 27716.787109375, 33032.5703125, 33486.28515625, 25926.771484375, 0.0, 0.0, 0.0, 193.0, 0.0, 1.0, 1.0, 0.0, 0.0, 1.0, 1.0, 256.0, 1.0, 1.608195168345032E9, 2020-12-17 14:37:48.345
86.0, 39838.5859375, 32488.99609375, 28567.025390625, 23290.361328125, 27682.052734375, 32999.53125, 33465.56640625, 25901.513671875, 0.0, 0.0, 0.0, 193.0, 0.0, 1.0, 1.0, 0.0, 0.0, 1.0, 1.0, 256.0, 1.0, 1.608195168345041E9, 2020-12-17 14:37:48.345
87.0, 39762.0078125, 32398.091796875, 28481.77734375, 23198.763671875, 27628.72265625, 32921.32421875, 33404.45703125, 25833.810546875, 0.0, 0.0, 0.0, 193.0, 0.0, 1.0, 1.0, 0.0, 0.0, 1.0, 1.0, 256.0, 1.0, 1.60819516834505E9, 2020-12-17 14:37:48.345
88.0, 39716.74609375, 32348.337890625, 28435.5078125, 23148.671875, 27606.146484375, 32879.9296875, 33362.390625, 25790.91796875, 0.0, 0.0, 0.0, 193.0, 0.0, 1.0, 1.0, 0.0, 0.0, 1.0, 1.0, 256.0, 1.0, 1.608195168345058E9, 2020-12-17 14:37:48.345
89.0, 39771.84375, 32414.521484375, 28499.14453125, 23217.068359375, 27647.251953125, 32934.80078125, 33408.66015625, 25837.318359375, 0.0, 0.0, 0.0, 193.0, 0.0, 1.0, 1.0, 0.0, 0.0, 1.0, 1.0, 256.0, 1.0, 1.608195168345066E9, 2020-12-17 14:37:48.345
90.0, 39865.5859375, 32520.244140625, 28601.044921875, 23327.15234375, 27714.91015625, 33030.51171875, 33499.98828125, 25930.03515625, 0.0, 0.0, 0.0, 193.0, 0.0, 1.0, 1.0, 0.0, 0.0, 1.0, 1.0, 256.0, 1.0, 1.608195168405274E9, 2020-12-17 14:37:48.405
91.0, 39852.9140625, 32499.369140625, 28580.75, 23308.48828125, 27700.26953125, 33019.3828125, 33490.53515625, 25918.3671875, 0.0, 0.0, 0.0, 193.0, 0.0, 1.0, 1.0, 0.0, 0.0, 1.0, 1.0, 256.0, 1.0, 1.608195168405281E9, 2020-12-17 14:37:48.405
92.0, 39774.76953125, 32407.63671875, 28491.365234375, 23212.6875, 27639.384765625, 32935.31640625, 33415.07421875, 25837.587890625, 0.0, 0.0, 0.0, 193.0, 0.0, 1.0, 1.0, 0.0, 0.0, 1.0, 1.0, 256.0, 1.0, 1.608195168405282E9, 2020-12-17 14:37:48.405
93.0, 39718.3984375, 32351.6015625, 28441.275390625, 23156.65234375, 27611.064453125, 32885.6953125, 33377.43359375, 25786.55859375, 0.0, 0.0, 0.0, 193.0, 0.0, 1.0, 1.0, 0.0, 0.0, 1.0, 1.0, 256.0, 1.0, 1.608195168405284E9, 2020-12-17 14:37:48.405
94.0, 39778.078125, 32420.443359375, 28508.083984375, 23228.333984375, 27659.8125, 32952.5703125, 33422.62890625, 25848.673828125, 0.0, 0.0, 0.0, 193.0, 0.0, 1.0, 1.0, 0.0, 0.0, 1.0, 1.0, 256.0, 1.0, 1.608195168405285E9, 2020-12-17 14:37:48.405
95.0, 39874.59375, 32521.98828125, 28603.794921875, 23334.55078125, 27721.59375, 33045.890625, 33495.25, 25934.974609375, 0.0, 0.0, 0.0, 193.0, 0.0, 1.0, 1.0, 0.0, 0.0, 1.0, 1.0, 256.0, 1.0, 1.608195168405286E9, 2020-12-17 14:37:48.405
96.0, 39858.79296875, 32501.513671875, 28582.494140625, 23310.65625, 27699.2421875, 33021.19140625, 33482.93359375, 25918.2109375, 0.0, 0.0, 0.0, 193.0, 0.0, 1.0, 1.0, 0.0, 0.0, 1.0, 1.0, 256.0, 1.0, 1.608195168405288E9, 2020-12-17 14:37:48.405
97.0, 39776.3359375, 32410.564453125, 28494.517578125, 23214.54296875, 27640.076171875, 32933.4609375, 33411.3203125, 25845.701171875, 0.0, 0.0, 0.0, 193.0, 0.0, 1.0, 1.0, 0.0, 0.0, 1.0, 1.0, 256.0, 1.0, 1.608195168405289E9, 2020-12-17 14:37:48.405
98.0, 39726.3359375, 32352.2265625, 28440.314453125, 23157.814453125, 27613.25390625, 32883.08203125, 33364.828125, 25789.8671875, 0.0, 0.0, 0.0, 193.0, 0.0, 1.0, 1.0, 0.0, 0.0, 1.0, 1.0, 256.0, 1.0, 1.608195168405291E9, 2020-12-17 14:37:48.405
99.0, 39786.328125, 32418.90234375, 28507.146484375, 23227.23828125, 27661.421875, 32948.1015625, 33419.72265625, 25846.193359375, 0.0, 0.0, 0.0, 193.0, 0.0, 1.0, 1.0, 0.0, 0.0, 1.0, 1.0, 256.0, 1.0, 1.608195168405292E9, 2020-12-17 14:37:48.405
100.0, 39865.18359375, 32511.259765625, 28594.18359375, 23319.529296875, 27707.064453125, 33023.875, 33490.9375, 25931.93359375, 0.0, 0.0, 0.0, 193.0, 0.0, 1.0, 1.0, 0.0, 0.0, 1.0, 1.0, 256.0, 1.0, 1.608195168405293E9, 2020-12-17 14:37:48.405
101.0, 39845.203125, 32492.6171875, 28574.603515625, 23295.904296875, 27681.875, 33004.78515625, 33475.6015625, 25918.58984375, 0.0, 0.0, 0.0, 193.0, 0.0, 1.0, 1.0, 0.0, 0.0, 1.0, 1.0, 256.0, 1.0, 1.608195168405303E9, 2020-12-17 14:37:48.405
102.0, 39760.98046875, 32402.62890625, 28485.330078125, 23196.728515625, 27618.841796875, 32918.88671875, 33399.62890625, 25839.12890625, 0.0, 0.0, 0.0, 193.0, 0.0, 1.0, 1.0, 0.0, 0.0, 1.0, 1.0, 256.0, 1.0, 1.608195168405304E9, 2020-12-17 14:37:48.405
103.0, 39712.1875, 32344.716796875, 28428.53515625, 23135.708984375, 27585.359375, 32856.97265625, 33344.01953125, 25782.892578125, 0.0, 0.0, 0.0, 193.0, 0.0, 1.0, 1.0, 0.0, 0.0, 1.0, 1.0, 256.0, 1.0, 1.608195168405306E9, 2020-12-17 14:37:48.405
104.0, 39783.17578125, 32417.0234375, 28502.02734375, 23219.52734375, 27642.736328125, 32928.96875, 33403.05078125, 25845.208984375, 0.0, 0.0, 0.0, 193.0, 0.0, 1.0, 1.0, 0.0, 0.0, 1.0, 1.0, 256.0, 1.0, 1.608195168405307E9, 2020-12-17 14:37:48.405
105.0, 39878.125, 32522.994140625, 28603.97265625, 23332.26953125, 27711.423828125, 33030.421875, 33494.37890625, 25936.830078125, 0.0, 0.0, 0.0, 193.0, 0.0, 1.0, 1.0, 0.0, 0.0, 1.0, 1.0, 256.0, 1.0, 1.608195168465474E9, 2020-12-17 14:37:48.465
106.0, 39850.87890625, 32497.177734375, 28577.28515625, 23301.759765625, 27680.51171875, 33003.9375, 33475.6484375, 25923.41796875, 0.0, 0.0, 0.0, 193.0, 0.0, 1.0, 1.0, 0.0, 0.0, 1.0, 1.0, 256.0, 1.0, 1.60819516846549E9, 2020-12-17 14:37:48.465
107.0, 39766.63671875, 32405.22265625, 28487.810546875, 23202.025390625, 27613.322265625, 32911.734375, 33398.3984375, 25839.822265625, 0.0, 0.0, 0.0, 193.0, 0.0, 1.0, 1.0, 0.0, 0.0, 1.0, 1.0, 256.0, 1.0, 1.608195168465497E9, 2020-12-17 14:37:48.465
108.0, 39714.30859375, 32348.359375, 28433.02734375, 23143.017578125, 27585.314453125, 32860.6171875, 33350.94921875, 25786.89453125, 0.0, 0.0, 0.0, 193.0, 0.0, 1.0, 1.0, 0.0, 0.0, 1.0, 1.0, 256.0, 1.0, 1.608195168465504E9, 2020-12-17 14:37:48.465
109.0, 39771.57421875, 32412.375, 28497.466796875, 23212.3984375, 27634.421875, 32922.9765625, 33403.69921875, 25844.29296875, 0.0, 0.0, 0.0, 193.0, 0.0, 1.0, 1.0, 0.0, 0.0, 1.0, 1.0, 256.0, 1.0, 1.608195168465511E9, 2020-12-17 14:37:48.465
110.0, 39861.40625, 32515.818359375, 28599.2578125, 23322.3671875, 27698.1015625, 33026.265625, 33491.65234375, 25939.154296875, 0.0, 0.0, 0.0, 193.0, 0.0, 1.0, 1.0, 0.0, 0.0, 1.0, 1.0, 256.0, 1.0, 1.608195168465518E9, 2020-12-17 14:37:48.465
111.0, 39855.9296875, 32504.732421875, 28588.685546875, 23312.17578125, 27684.4453125, 33016.18359375, 33485.32421875, 25936.494140625, 0.0, 0.0, 0.0, 193.0, 0.0, 1.0, 1.0, 0.0, 0.0, 1.0, 1.0, 256.0, 1.0, 1.608195168465525E9, 2020-12-17 14:37:48.465
112.0, 39777.83203125, 32417.873046875, 28504.015625, 23220.7578125, 27636.9921875, 32938.66796875, 33418.671875, 25868.052734375, 0.0, 0.0, 0.0, 193.0, 0.0, 1.0, 1.0, 0.0, 0.0, 1.0, 1.0, 256.0, 1.0, 1.608195168465532E9, 2020-12-17 14:37:48.465
113.0, 39715.2265625, 32349.03125, 28436.783203125, 23149.72265625, 27595.640625, 32876.33203125, 33360.3359375, 25802.09375, 0.0, 0.0, 0.0, 193.0, 0.0, 1.0, 1.0, 0.0, 0.0, 1.0, 1.0, 256.0, 1.0, 1.608195168465539E9, 2020-12-17 14:37:48.465
114.0, 39766.0078125, 32409.06640625, 28495.8125, 23210.85546875, 27633.37109375, 32928.90234375, 33404.66015625, 25847.51171875, 0.0, 0.0, 0.0, 193.0, 0.0, 1.0, 1.0, 0.0, 0.0, 1.0, 1.0, 256.0, 1.0, 1.608195168465546E9, 2020-12-17 14:37:48.465
115.0, 39853.00390625, 32506.005859375, 28586.94140625, 23306.654296875, 27687.796875, 33006.4609375, 33476.5625, 25934.794921875, 0.0, 0.0, 0.0, 193.0, 0.0, 1.0, 1.0, 0.0, 0.0, 1.0, 1.0, 256.0, 1.0, 1.608195168465553E9, 2020-12-17 14:37:48.465
116.0, 39841.58203125, 32488.505859375, 28570.53515625, 23289.265625, 27671.705078125, 32987.53125, 33465.56640625, 25925.630859375, 0.0, 0.0, 0.0, 193.0, 0.0, 1.0, 1.0, 0.0, 0.0, 1.0, 1.0, 256.0, 1.0, 1.60819516846556E9, 2020-12-17 14:37:48.465
117.0, 39767.12890625, 32399.8359375, 28487.923828125, 23202.80859375, 27619.244140625, 32912.98828125, 33403.96484375, 25850.103515625, 0.0, 0.0, 0.0, 193.0, 0.0, 1.0, 1.0, 0.0, 0.0, 1.0, 1.0, 256.0, 1.0, 1.608195168465567E9, 2020-12-17 14:37:48.465
118.0, 39713.125, 32344.359375, 28434.525390625, 23144.134765625, 27581.716796875, 32860.39453125, 33359.6640625, 25787.51953125, 0.0, 0.0, 0.0, 193.0, 0.0, 1.0, 1.0, 0.0, 0.0, 1.0, 1.0, 256.0, 1.0, 1.608195168465575E9, 2020-12-17 14:37:48.465
119.0, 39766.12109375, 32409.939453125, 28499.1875, 23216.509765625, 27627.89453125, 32930.9375, 33410.06640625, 25842.638671875, 0.0, 0.0, 0.0, 193.0, 0.0, 1.0, 1.0, 0.0, 0.0, 1.0, 1.0, 256.0, 1.0, 1.608195168465582E9, 2020-12-17 14:37:48.465
120.0, 39863.39453125, 32512.578125, 28597.111328125, 23325.384765625, 27702.83984375, 33029.1484375, 33487.3828125, 25937.4765625, 0.0, 0.0, 0.0, 193.0, 0.0, 1.0, 1.0, 0.0, 0.0, 1.0, 1.0, 256.0, 1.0, 1.608195168525753E9, 2020-12-17 14:37:48.525
121.0, 39848.109375, 32498.048828125, 28581.48828125, 23303.8828125, 27686.255859375, 33011.22265625, 33478.7109375, 25930.48046875, 0.0, 0.0, 0.0, 193.0, 0.0, 1.0, 1.0, 0.0, 0.0, 1.0, 1.0, 256.0, 1.0, 1.608195168525767E9, 2020-12-17 14:37:48.525
122.0, 39771.328125, 32413.60546875, 28500.462890625, 23213.24609375, 27624.654296875, 32924.23046875, 33414.6484375, 25855.513671875, 0.0, 0.0, 0.0, 193.0, 0.0, 1.0, 1.0, 0.0, 0.0, 1.0, 1.0, 256.0, 1.0, 1.608195168525774E9, 2020-12-17 14:37:48.525
123.0, 39714.9375, 32349.34375, 28438.302734375, 23145.1640625, 27586.03125, 32859.76953125, 33362.4140625, 25793.912109375, 0.0, 0.0, 0.0, 193.0, 0.0, 1.0, 1.0, 0.0, 0.0, 1.0, 1.0, 256.0, 1.0, 1.608195168525781E9, 2020-12-17 14:37:48.525
124.0, 39774.68359375, 32406.98828125, 28493.0859375, 23208.77734375, 27636.58984375, 32921.01171875, 33394.53125, 25833.564453125, 0.0, 0.0, 0.0, 193.0, 0.0, 1.0, 1.0, 0.0, 0.0, 1.0, 1.0, 256.0, 1.0, 1.608195168525804E9, 2020-12-17 14:37:48.525
125.0, 39871.5546875, 32515.595703125, 28595.994140625, 23316.421875, 27697.341796875, 33006.328125, 33475.06640625, 25917.919921875, 0.0, 0.0, 0.0, 193.0, 0.0, 1.0, 1.0, 0.0, 0.0, 1.0, 1.0, 256.0, 1.0, 1.608195168525811E9, 2020-12-17 14:37:48.525
126.0, 39858.58984375, 32509.359375, 28589.734375, 23307.212890625, 27686.9921875, 32999.51171875, 33471.89453125, 25907.212890625, 0.0, 0.0, 0.0, 193.0, 0.0, 1.0, 1.0, 0.0, 0.0, 1.0, 1.0, 256.0, 1.0, 1.608195168525818E9, 2020-12-17 14:37:48.525
127.0, 39784.78515625, 32428.580078125, 28512.822265625, 23225.25, 27638.51171875, 32936.6796875, 33411.02734375, 25834.837890625, 0.0, 0.0, 0.0, 193.0, 0.0, 1.0, 1.0, 0.0, 0.0, 1.0, 1.0, 256.0, 1.0, 1.608195168525825E9, 2020-12-17 14:37:48.525
128.0, 39744.26171875, 32377.126953125, 28467.046875, 23180.748046875, 27626.822265625, 32905.25390625, 33377.56640625, 25789.93359375, 0.0, 0.0, 0.0, 193.0, 0.0, 1.0, 1.0, 0.0, 0.0, 1.0, 1.0, 256.0, 1.0, 1.608195168525832E9, 2020-12-17 14:37:48.525
129.0, 39788.359375, 32439.17578125, 28526.591796875, 23240.44921875, 27676.33203125, 32960.9765625, 33427.4140625, 25843.734375, 0.0, 0.0, 0.0, 193.0, 0.0, 1.0, 1.0, 0.0, 0.0, 1.0, 1.0, 256.0, 1.0, 1.608195168525839E9, 2020-12-17 14:37:48.525
130.0, 39867.9765625, 32531.935546875, 28616.244140625, 23337.052734375, 27728.298828125, 33042.2265625, 33503.9453125, 25932.001953125, 0.0, 0.0, 0.0, 193.0, 0.0, 1.0, 1.0, 0.0, 0.0, 1.0, 1.0, 256.0, 1.0, 1.608195168525845E9, 2020-12-17 14:37:48.525
131.0, 39860.9375, 32527.798828125, 28612.421875, 23332.984375, 27713.994140625, 33040.94921875, 33515.30078125, 25958.15234375, 0.0, 0.0, 0.0, 193.0, 0.0, 1.0, 1.0, 0.0, 0.0, 1.0, 1.0, 256.0, 1.0, 1.608195168525853E9, 2020-12-17 14:37:48.525
132.0, 39776.5390625, 32450.328125, 28541.03125, 23250.640625, 27641.3515625, 32971.63671875, 33468.16015625, 25925.318359375, 0.0, 0.0, 0.0, 193.0, 0.0, 1.0, 1.0, 0.0, 0.0, 1.0, 1.0, 256.0, 1.0, 1.60819516852586E9, 2020-12-17 14:37:48.525
133.0, 39720.92578125, 32391.1640625, 28483.876953125, 23187.69921875, 27592.826171875, 32918.3515625, 33417.21875, 25879.51953125, 0.0, 0.0, 0.0, 193.0, 0.0, 1.0, 1.0, 0.0, 0.0, 1.0, 1.0, 256.0, 1.0, 1.608195168525867E9, 2020-12-17 14:37:48.525
134.0, 39745.69140625, 32426.14453125, 28517.740234375, 23221.29296875, 27601.408203125, 32937.8203125, 33440.64453125, 25900.5078125, 0.0, 0.0, 0.0, 193.0, 0.0, 1.0, 1.0, 0.0, 0.0, 1.0, 1.0, 256.0, 1.0, 1.608195168525874E9, 2020-12-17 14:37:48.525
135.0, 39823.609375, 32517.205078125, 28603.951171875, 23314.96875, 27647.85546875, 33019.40234375, 33504.75, 25982.91796875, 0.0, 0.0, 0.0, 193.0, 0.0, 1.0, 1.0, 0.0, 0.0, 1.0, 1.0, 256.0, 1.0, 1.608195168584945E9, 2020-12-17 14:37:48.584
136.0, 39808.34375, 32504.755859375, 28586.0703125, 23291.3671875, 27621.01171875, 32994.66015625, 33478.46484375, 25972.97265625, 0.0, 0.0, 0.0, 193.0, 0.0, 1.0, 1.0, 0.0, 0.0, 1.0, 1.0, 256.0, 1.0, 1.608195168584952E9, 2020-12-17 14:37:48.584
137.0, 39755.37109375, 32442.080078125, 28520.66796875, 23216.107421875, 27577.9609375, 32916.2734375, 33414.875, 25899.880859375, 0.0, 0.0, 0.0, 193.0, 0.0, 1.0, 1.0, 0.0, 0.0, 1.0, 1.0, 256.0, 1.0, 1.608195168584954E9, 2020-12-17 14:37:48.584
138.0, 39708.69921875, 32382.3125, 28467.359375, 23161.16796875, 27560.013671875, 32875.79296875, 33372.25, 25843.599609375, 0.0, 0.0, 0.0, 193.0, 0.0, 1.0, 1.0, 0.0, 0.0, 1.0, 1.0, 256.0, 1.0, 1.608195168584957E9, 2020-12-17 14:37:48.584
139.0, 39742.0703125, 32424.2890625, 28507.01171875, 23201.623046875, 27591.05859375, 32905.54296875, 33399.80859375, 25869.88671875, 0.0, 0.0, 0.0, 193.0, 0.0, 1.0, 1.0, 0.0, 0.0, 1.0, 1.0, 256.0, 1.0, 1.608195168584959E9, 2020-12-17 14:37:48.584
140.0, 39829.7109375, 32525.4296875, 28599.90625, 23301.044921875, 27656.080078125, 32989.36328125, 33473.03125, 25950.6875, 0.0, 0.0, 0.0, 193.0, 0.0, 1.0, 1.0, 0.0, 0.0, 1.0, 1.0, 256.0, 1.0, 1.608195168584961E9, 2020-12-17 14:37:48.584
141.0, 39819.3203125, 32523.10546875, 28591.658203125, 23288.259765625, 27637.126953125, 32976.17578125, 33465.54296875, 25936.2265625, 0.0, 0.0, 0.0, 193.0, 0.0, 1.0, 1.0, 0.0, 0.0, 1.0, 1.0, 256.0, 1.0, 1.608195168584964E9, 2020-12-17 14:37:48.584
142.0, 39751.19140625, 32451.244140625, 28520.17578125, 23211.615234375, 27591.953125, 32909.6328125, 33406.11328125, 25859.671875, 0.0, 0.0, 0.0, 193.0, 0.0, 1.0, 1.0, 0.0, 0.0, 1.0, 1.0, 256.0, 1.0, 1.608195168584966E9, 2020-12-17 14:37:48.584
143.0, 39711.0234375, 32404.41796875, 28478.19921875, 23171.470703125, 27582.185546875, 32878.7890625, 33380.296875, 25819.572265625, 0.0, 0.0, 0.0, 193.0, 0.0, 1.0, 1.0, 0.0, 0.0, 1.0, 1.0, 256.0, 1.0, 1.608195168584968E9, 2020-12-17 14:37:48.584
144.0, 39751.703125, 32458.28515625, 28531.396484375, 23227.552734375, 27623.15625, 32937.8203125, 33423.078125, 25866.734375, 0.0, 0.0, 0.0, 193.0, 0.0, 1.0, 1.0, 0.0, 0.0, 1.0, 1.0, 256.0, 1.0, 1.60819516858497E9, 2020-12-17 14:37:48.584
145.0, 39840.30859375, 32548.228515625, 28615.595703125, 23318.970703125, 27675.90625, 33014.28515625, 33483.15625, 25949.345703125, 0.0, 0.0, 0.0, 193.0, 0.0, 1.0, 1.0, 0.0, 0.0, 1.0, 1.0, 256.0, 1.0, 1.608195168584972E9, 2020-12-17 14:37:48.584
146.0, 39834.8984375, 32543.4453125, 28606.341796875, 23307.4140625, 27659.34375, 32998.796875, 33468.62890625, 25944.31640625, 0.0, 0.0, 0.0, 193.0, 0.0, 1.0, 1.0, 0.0, 0.0, 1.0, 1.0, 256.0, 1.0, 1.608195168584975E9, 2020-12-17 14:37:48.584
147.0, 39768.3359375, 32481.978515625, 28543.69140625, 23232.4921875, 27615.78125, 32930.80078125, 33419.72265625, 25889.755859375, 0.0, 0.0, 0.0, 193.0, 0.0, 1.0, 1.0, 0.0, 0.0, 1.0, 1.0, 256.0, 1.0, 1.608195168584984E9, 2020-12-17 14:37:48.584
148.0, 39720.859375, 32429.2734375, 28497.66796875, 23180.970703125, 27592.490234375, 32887.125, 33388.20703125, 25842.794921875, 0.0, 0.0, 0.0, 193.0, 0.0, 1.0, 1.0, 0.0, 0.0, 1.0, 1.0, 256.0, 1.0, 1.608195168584986E9, 2020-12-17 14:37:48.584
149.0, 39762.38671875, 32477.8203125, 28542.908203125, 23229.787109375, 27624.36328125, 32929.08203125, 33421.69140625, 25872.5, 0.0, 0.0, 0.0, 193.0, 0.0, 1.0, 1.0, 0.0, 0.0, 1.0, 1.0, 256.0, 1.0, 1.608195168584989E9, 2020-12-17 14:37:48.584
150.0, 39836.57421875, 32569.396484375, 28626.19140625, 23317.0703125, 27664.708984375, 33002.8203125, 33488.4765625, 25937.767578125, 0.0, 0.0, 0.0, 193.0, 0.0, 1.0, 1.0, 0.0, 0.0, 1.0, 1.0, 256.0, 1.0, 1.608195168644869E9, 2020-12-17 14:37:48.644
151.0, 39846.296875, 32578.6953125, 28634.998046875, 23329.990234375, 27667.859375, 33019.875, 33498.9140625, 25944.18359375, 0.0, 0.0, 0.0, 193.0, 0.0, 1.0, 1.0, 0.0, 0.0, 1.0, 1.0, 256.0, 1.0, 1.608195168644887E9, 2020-12-17 14:37:48.644
152.0, 39784.1796875, 32509.94140625, 28566.66796875, 23255.40234375, 27631.650390625, 32961.84765625, 33435.7265625, 25883.85546875, 0.0, 0.0, 0.0, 193.0, 0.0, 1.0, 1.0, 0.0, 0.0, 1.0, 1.0, 256.0, 1.0, 1.608195168644896E9, 2020-12-17 14:37:48.644
153.0, 39735.74609375, 32451.580078125, 28512.3984375, 23195.275390625, 27602.2578125, 32907.01953125, 33385.75, 25831.28515625, 0.0, 0.0, 0.0, 193.0, 0.0, 1.0, 1.0, 0.0, 0.0, 1.0, 1.0, 256.0, 1.0, 1.608195168644905E9, 2020-12-17 14:37:48.644
154.0, 39770.8828125, 32493.736328125, 28550.12890625, 23234.99609375, 27631.359375, 32935.98828125, 33414.15625, 25868.767578125, 0.0, 0.0, 0.0, 193.0, 0.0, 1.0, 1.0, 0.0, 0.0, 1.0, 1.0, 256.0, 1.0, 1.608195168644913E9, 2020-12-17 14:37:48.644
155.0, 39836.05859375, 32578.626953125, 28628.60546875, 23314.076171875, 27667.994140625, 32998.01171875, 33478.41796875, 25943.51171875, 0.0, 0.0, 0.0, 193.0, 0.0, 1.0, 1.0, 0.0, 0.0, 1.0, 1.0, 256.0, 1.0, 1.608195168644921E9, 2020-12-17 14:37:48.644
156.0, 39849.42578125, 32592.552734375, 28641.345703125, 23328.939453125, 27673.873046875, 33011.4921875, 33496.27734375, 25954.95703125, 0.0, 0.0, 0.0, 193.0, 0.0, 1.0, 1.0, 0.0, 0.0, 1.0, 1.0, 256.0, 1.0, 1.60819516864493E9, 2020-12-17 14:37:48.644
157.0, 39790.86328125, 32524.939453125, 28579.810546875, 23263.896484375, 27631.0234375, 32956.484375, 33452.828125, 25891.65625, 0.0, 0.0, 0.0, 193.0, 0.0, 1.0, 1.0, 0.0, 0.0, 1.0, 1.0, 256.0, 1.0, 1.608195168644938E9, 2020-12-17 14:37:48.644
158.0, 39729.890625, 32453.5703125, 28513.248046875, 23196.080078125, 27595.283203125, 32907.64453125, 33398.625, 25837.9453125, 0.0, 0.0, 0.0, 193.0, 0.0, 1.0, 1.0, 0.0, 0.0, 1.0, 1.0, 256.0, 1.0, 1.608195168644948E9, 2020-12-17 14:37:48.644
159.0, 39756.578125, 32485.98046875, 28543.04296875, 23231.10546875, 27618.88671875, 32932.6328125, 33413.375, 25860.69921875, 0.0, 0.0, 0.0, 193.0, 0.0, 1.0, 1.0, 0.0, 0.0, 1.0, 1.0, 256.0, 1.0, 1.608195168644957E9, 2020-12-17 14:37:48.644
160.0, 39846.9453125, 32590.876953125, 28644.162109375, 23340.451171875, 27685.943359375, 33038.9609375, 33496.8828125, 25956.4765625, 0.0, 0.0, 0.0, 193.0, 0.0, 1.0, 1.0, 0.0, 0.0, 1.0, 1.0, 256.0, 1.0, 1.608195168644965E9, 2020-12-17 14:37:48.644
161.0, 39841.73828125, 32590.048828125, 28641.099609375, 23330.771484375, 27668.083984375, 33023.44921875, 33488.90234375, 25957.974609375, 0.0, 0.0, 0.0, 193.0, 0.0, 1.0, 1.0, 0.0, 0.0, 1.0, 1.0, 256.0, 1.0, 1.608195168644974E9, 2020-12-17 14:37:48.644
162.0, 39774.75, 32517.62890625, 28571.98828125, 23253.0546875, 27623.537109375, 32950.47265625, 33434.38671875, 25894.3828125, 0.0, 0.0, 0.0, 193.0, 0.0, 1.0, 1.0, 0.0, 0.0, 1.0, 1.0, 256.0, 1.0, 1.608195168644983E9, 2020-12-17 14:37:48.644
163.0, 39720.5234375, 32455.134765625, 28514.767578125, 23190.984375, 27587.326171875, 32898.1015625, 33392.58984375, 25840.828125, 0.0, 0.0, 0.0, 193.0, 0.0, 1.0, 1.0, 0.0, 0.0, 1.0, 1.0, 256.0, 1.0, 1.608195168644992E9, 2020-12-17 14:37:48.644
164.0, 39743.30078125, 32479.85546875, 28537.298828125, 23217.181640625, 27600.939453125, 32915.421875, 33403.921875, 25857.390625, 0.0, 0.0, 0.0, 193.0, 0.0, 1.0, 1.0, 0.0, 0.0, 1.0, 1.0, 256.0, 1.0, 1.608195168645001E9, 2020-12-17 14:37:48.645
165.0, 39823.83203125, 32576.884765625, 28627.0859375, 23312.109375, 27657.109375, 32998.39453125, 33482.734375, 25947.3125, 0.0, 0.0, 0.0, 193.0, 0.0, 1.0, 1.0, 0.0, 0.0, 1.0, 1.0, 256.0, 1.0, 1.60819516870523E9, 2020-12-17 14:37:48.705
166.0, 39841.984375, 32588.953125, 28636.763671875, 23324.06640625, 27665.84765625, 33011.828125, 33489.37109375, 25963.091796875, 0.0, 0.0, 0.0, 193.0, 0.0, 1.0, 1.0, 0.0, 0.0, 1.0, 1.0, 256.0, 1.0, 1.608195168705235E9, 2020-12-17 14:37:48.705
167.0, 39795.55859375, 32527.62109375, 28579.990234375, 23264.87890625, 27646.71484375, 32960.86328125, 33447.23828125, 25917.427734375, 0.0, 0.0, 0.0, 193.0, 0.0, 1.0, 1.0, 0.0, 0.0, 1.0, 1.0, 256.0, 1.0, 1.608195168705236E9, 2020-12-17 14:37:48.705
168.0, 39739.12109375, 32456.54296875, 28517.046875, 23198.8515625, 27614.037109375, 32907.1328125, 33399.96484375, 25864.23046875, 0.0, 0.0, 0.0, 193.0, 0.0, 1.0, 1.0, 0.0, 0.0, 1.0, 1.0, 256.0, 1.0, 1.608195168705238E9, 2020-12-17 14:37:48.705
169.0, 39766.3671875, 32491.34375, 28550.619140625, 23233.498046875, 27641.26171875, 32937.171875, 33428.10546875, 25889.533203125, 0.0, 0.0, 0.0, 193.0, 0.0, 1.0, 1.0, 0.0, 0.0, 1.0, 1.0, 256.0, 1.0, 1.608195168705239E9, 2020-12-17 14:37:48.705
170.0, 39832.57421875, 32567.16015625, 28621.318359375, 23312.958984375, 27679.52734375, 33000.42578125, 33482.48828125, 25959.26953125, 0.0, 0.0, 0.0, 193.0, 0.0, 1.0, 1.0, 0.0, 0.0, 1.0, 1.0, 256.0, 1.0, 1.608195168705241E9, 2020-12-17 14:37:48.705
171.0, 39847.5703125, 32577.978515625, 28633.6796875, 23328.15625, 27685.16015625, 33015.78125, 33501.95703125, 25977.666015625, 0.0, 0.0, 0.0, 193.0, 0.0, 1.0, 1.0, 0.0, 0.0, 1.0, 1.0, 256.0, 1.0, 1.608195168705248E9, 2020-12-17 14:37:48.705
172.0, 39793.1015625, 32514.92578125, 28577.552734375, 23267.673828125, 27657.220703125, 32970.140625, 33467.5546875, 25932.470703125, 0.0, 0.0, 0.0, 193.0, 0.0, 1.0, 1.0, 0.0, 0.0, 1.0, 1.0, 256.0, 1.0, 1.608195168705249E9, 2020-12-17 14:37:48.705
173.0, 39746.09375, 32458.77734375, 28525.697265625, 23212.419921875, 27642.646484375, 32929.2578125, 33421.15234375, 25889.82421875, 0.0, 0.0, 0.0, 193.0, 0.0, 1.0, 1.0, 0.0, 0.0, 1.0, 1.0, 256.0, 1.0, 1.60819516870525E9, 2020-12-17 14:37:48.705
174.0, 39756.578125, 32470.109375, 28537.275390625, 23225.18359375, 27652.861328125, 32936.1875, 33421.64453125, 25900.26171875, 0.0, 0.0, 0.0, 193.0, 0.0, 1.0, 1.0, 0.0, 0.0, 1.0, 1.0, 256.0, 1.0, 1.608195168705252E9, 2020-12-17 14:37:48.705
175.0, 39830.00390625, 32554.30859375, 28614.74609375, 23311.013671875, 27694.32421875, 33011.24609375, 33484.20703125, 25976.458984375, 0.0, 0.0, 0.0, 193.0, 0.0, 1.0, 1.0, 0.0, 0.0, 1.0, 1.0, 256.0, 1.0, 1.608195168705253E9, 2020-12-17 14:37:48.705
176.0, 39842.1171875, 32564.724609375, 28625.095703125, 23322.0546875, 27689.80859375, 33020.4765625, 33492.96875, 25983.544921875, 0.0, 0.0, 0.0, 193.0, 0.0, 1.0, 1.0, 0.0, 0.0, 1.0, 1.0, 256.0, 1.0, 1.608195168705255E9, 2020-12-17 14:37:48.705
177.0, 39795.35546875, 32502.765625, 28569.57421875, 23264.7890625, 27658.875, 32967.390625, 33451.1953125, 25930.66015625, 0.0, 0.0, 0.0, 193.0, 0.0, 1.0, 1.0, 0.0, 0.0, 1.0, 1.0, 256.0, 1.0, 1.608195168705256E9, 2020-12-17 14:37:48.705
178.0, 39743.32421875, 32438.9296875, 28508.888671875, 23201.53515625, 27632.052734375, 32916.4296875, 33407.18359375, 25877.75390625, 0.0, 0.0, 0.0, 193.0, 0.0, 1.0, 1.0, 0.0, 0.0, 1.0, 1.0, 256.0, 1.0, 1.608195168705258E9, 2020-12-17 14:37:48.705
179.0, 39763.4375, 32464.74609375, 28534.1015625, 23227.6640625, 27650.58203125, 32940.234375, 33427.7265625, 25902.33984375, 0.0, 0.0, 0.0, 193.0, 0.0, 1.0, 1.0, 0.0, 0.0, 1.0, 1.0, 256.0, 1.0, 1.608195168705259E9, 2020-12-17 14:37:48.705
180.0, 39831.43359375, 32543.267578125, 28609.875, 23309.046875, 27683.6171875, 33006.953125, 33486.265625, 25966.400390625, 0.0, 0.0, 0.0, 193.0, 0.0, 1.0, 1.0, 0.0, 0.0, 1.0, 1.0, 256.0, 1.0, 1.608195168765437E9, 2020-12-17 14:37:48.765
181.0, 39832.39453125, 32548.140625, 28614.255859375, 23310.65625, 27675.572265625, 33004.65234375, 33494.890625, 25974.939453125, 0.0, 0.0, 0.0, 193.0, 0.0, 1.0, 1.0, 0.0, 0.0, 1.0, 1.0, 256.0, 1.0, 1.608195168765455E9, 2020-12-17 14:37:48.765
182.0, 39771.75390625, 32475.49609375, 28544.361328125, 23236.447265625, 27637.751953125, 32943.296875, 33435.50390625, 25914.72265625, 0.0, 0.0, 0.0, 193.0, 0.0, 1.0, 1.0, 0.0, 0.0, 1.0, 1.0, 256.0, 1.0, 1.608195168765463E9, 2020-12-17 14:37:48.765
183.0, 39717.9765625, 32415.951171875, 28489.533203125, 23176.052734375, 27607.599609375, 32895.84375, 33389.99609375, 25866.01953125, 0.0, 0.0, 0.0, 193.0, 0.0, 1.0, 1.0, 0.0, 0.0, 1.0, 1.0, 256.0, 1.0, 1.608195168765472E9, 2020-12-17 14:37:48.765
184.0, 39737.7578125, 32439.62109375, 28513.359375, 23202.98828125, 27622.8203125, 32914.26171875, 33407.16015625, 25882.513671875, 0.0, 0.0, 0.0, 193.0, 0.0, 1.0, 1.0, 0.0, 0.0, 1.0, 1.0, 256.0, 1.0, 1.608195168765481E9, 2020-12-17 14:37:48.765
185.0, 39805.796875, 32517.115234375, 28584.59375, 23279.810546875, 27654.583984375, 32977.13671875, 33459.59765625, 25950.6640625, 0.0, 0.0, 0.0, 193.0, 0.0, 1.0, 1.0, 0.0, 0.0, 1.0, 1.0, 256.0, 1.0, 1.608195168765489E9, 2020-12-17 14:37:48.765
186.0, 39826.5390625, 32530.615234375, 28595.7265625, 23293.7578125, 27654.359375, 32987.171875, 33468.96484375, 25964.412109375, 0.0, 0.0, 0.0, 193.0, 0.0, 1.0, 1.0, 0.0, 0.0, 1.0, 1.0, 256.0, 1.0, 1.6081951687655E9, 2020-12-17 14:37:48.765
187.0, 39784.828125, 32479.072265625, 28550.28515625, 23249.703125, 27647.900390625, 32958.5625, 33450.5234375, 25938.796875, 0.0, 0.0, 0.0, 193.0, 0.0, 1.0, 1.0, 0.0, 0.0, 1.0, 1.0, 256.0, 1.0, 1.608195168765507E9, 2020-12-17 14:37:48.765
188.0, 39732.97265625, 32424.064453125, 28500.8203125, 23194.26953125, 27632.41015625, 32917.2109375, 33409.3984375, 25897.7578125, 0.0, 0.0, 0.0, 193.0, 0.0, 1.0, 1.0, 0.0, 0.0, 1.0, 1.0, 256.0, 1.0, 1.608195168765514E9, 2020-12-17 14:37:48.765
189.0, 39749.37890625, 32446.259765625, 28518.8359375, 23210.609375, 27641.462890625, 32926.8671875, 33417.69140625, 25913.427734375, 0.0, 0.0, 0.0, 193.0, 0.0, 1.0, 1.0, 0.0, 0.0, 1.0, 1.0, 256.0, 1.0, 1.608195168765521E9, 2020-12-17 14:37:48.765
190.0, 39810.64453125, 32515.953125, 28583.587890625, 23280.75, 27664.26171875, 32978.6796875, 33467.5546875, 25973.375, 0.0, 0.0, 0.0, 193.0, 0.0, 1.0, 1.0, 0.0, 0.0, 1.0, 1.0, 256.0, 1.0, 1.608195168765528E9, 2020-12-17 14:37:48.765
191.0, 39821.9765625, 32526.771484375, 28591.1875, 23289.98046875, 27661.1328125, 32984.82421875, 33472.13671875, 25980.125, 0.0, 0.0, 0.0, 193.0, 0.0, 1.0, 1.0, 0.0, 0.0, 1.0, 1.0, 256.0, 1.0, 1.608195168765535E9, 2020-12-17 14:37:48.765
192.0, 39783.48828125, 32477.330078125, 28547.177734375, 23242.326171875, 27643.09375, 32947.5859375, 33441.1796875, 25936.470703125, 0.0, 0.0, 0.0, 193.0, 0.0, 1.0, 1.0, 0.0, 0.0, 1.0, 1.0, 256.0, 1.0, 1.608195168765543E9, 2020-12-17 14:37:48.765
193.0, 39732.37109375, 32420.623046875, 28497.646484375, 23186.984375, 27617.634765625, 32908.0234375, 33405.91015625, 25898.2734375, 0.0, 0.0, 0.0, 193.0, 0.0, 1.0, 1.0, 0.0, 0.0, 1.0, 1.0, 256.0, 1.0, 1.60819516876555E9, 2020-12-17 14:37:48.765
194.0, 39739.96875, 32431.576171875, 28507.078125, 23199.6796875, 27628.41015625, 32915.98046875, 33411.4765625, 25914.701171875, 0.0, 0.0, 0.0, 193.0, 0.0, 1.0, 1.0, 0.0, 0.0, 1.0, 1.0, 256.0, 1.0, 1.608195168765573E9, 2020-12-17 14:37:48.765
195.0, 39804.5, 32503.994140625, 28577.017578125, 23276.94921875, 27660.08203125, 32982.74609375, 33463.77734375, 25971.765625, 0.0, 0.0, 0.0, 193.0, 0.0, 1.0, 1.0, 0.0, 0.0, 1.0, 1.0, 256.0, 1.0, 1.608195168825678E9, 2020-12-17 14:37:48.825
196.0, 39817.796875, 32525.341796875, 28597.0, 23298.607421875, 27663.322265625, 33006.9765625, 33485.50390625, 25995.212890625, 0.0, 0.0, 0.0, 193.0, 0.0, 1.0, 1.0, 0.0, 0.0, 1.0, 1.0, 256.0, 1.0, 1.608195168825684E9, 2020-12-17 14:37:48.825
197.0, 39776.29296875, 32476.099609375, 28551.134765625, 23246.529296875, 27641.328125, 32956.953125, 33456.58203125, 25956.9453125, 0.0, 0.0, 0.0, 193.0, 0.0, 1.0, 1.0, 0.0, 0.0, 1.0, 1.0, 256.0, 1.0, 1.608195168825686E9, 2020-12-17 14:37:48.825
198.0, 39735.8359375, 32424.7578125, 28506.744140625, 23199.5, 27625.056640625, 32923.0234375, 33426.921875, 25924.580078125, 0.0, 0.0, 0.0, 193.0, 0.0, 1.0, 1.0, 0.0, 0.0, 1.0, 1.0, 256.0, 1.0, 1.608195168825688E9, 2020-12-17 14:37:48.825
199.0, 39743.6796875, 32438.548828125, 28515.416015625, 23207.30078125, 27629.236328125, 32925.6171875, 33419.2109375, 25932.3359375, 0.0, 0.0, 0.0, 193.0, 0.0, 1.0, 1.0, 0.0, 0.0, 1.0, 1.0, 256.0, 1.0, 1.60819516882569E9, 2020-12-17 14:37:48.825
200.0, 39801.1015625, 32502.765625, 28575.162109375, 23270.982421875, 27651.4765625, 32968.93359375, 33462.03515625, 25985.19921875, 0.0, 0.0, 0.0, 193.0, 0.0, 1.0, 1.0, 0.0, 0.0, 1.0, 1.0, 256.0, 1.0, 1.608195168825692E9, 2020-12-17 14:37:48.825
201.0, 39821.62109375, 32525.095703125, 28597.333984375, 23293.712890625, 27652.28125, 32990.14453125, 33488.8125, 26013.025390625, 0.0, 0.0, 0.0, 193.0, 0.0, 1.0, 1.0, 0.0, 0.0, 1.0, 1.0, 256.0, 1.0, 1.608195168825694E9, 2020-12-17 14:37:48.825
202.0, 39781.72265625, 32478.201171875, 28551.826171875, 23244.78515625, 27629.548828125, 32951.27734375, 33453.7890625, 25975.140625, 0.0, 0.0, 0.0, 193.0, 0.0, 1.0, 1.0, 0.0, 0.0, 1.0, 1.0, 256.0, 1.0, 1.608195168825695E9, 2020-12-17 14:37:48.825
203.0, 39740.4375, 32424.2890625, 28502.40625, 23193.287109375, 27611.556640625, 32905.23046875, 33412.81640625, 25927.77734375, 0.0, 0.0, 0.0, 193.0, 0.0, 1.0, 1.0, 0.0, 0.0, 1.0, 1.0, 256.0, 1.0, 1.608195168825697E9, 2020-12-17 14:37:48.825
204.0, 39749.8046875, 32444.44921875, 28520.01953125, 23209.693359375, 27625.50390625, 32922.5546875, 33422.02734375, 25944.853515625, 0.0, 0.0, 0.0, 193.0, 0.0, 1.0, 1.0, 0.0, 0.0, 1.0, 1.0, 256.0, 1.0, 1.608195168825699E9, 2020-12-17 14:37:48.825
205.0, 39804.90234375, 32512.533203125, 28582.091796875, 23275.943359375, 27647.564453125, 32974.87890625, 33463.5546875, 25997.603515625, 0.0, 0.0, 0.0, 193.0, 0.0, 1.0, 1.0, 0.0, 0.0, 1.0, 1.0, 256.0, 1.0, 1.608195168825701E9, 2020-12-17 14:37:48.825
206.0, 39824.7265625, 32531.80078125, 28601.783203125, 23296.171875, 27646.0, 32989.00390625, 33484.765625, 26016.22265625, 0.0, 0.0, 0.0, 193.0, 0.0, 1.0, 1.0, 0.0, 0.0, 1.0, 1.0, 256.0, 1.0, 1.608195168825703E9, 2020-12-17 14:37:48.825
207.0, 39784.6953125, 32480.97265625, 28553.435546875, 23245.12109375, 27617.880859375, 32951.85546875, 33450.5234375, 25985.6015625, 0.0, 0.0, 0.0, 193.0, 0.0, 1.0, 1.0, 0.0, 0.0, 1.0, 1.0, 256.0, 1.0, 1.608195168825704E9, 2020-12-17 14:37:48.825
208.0, 39740.7734375, 32428.3125, 28504.173828125, 23192.884765625, 27605.275390625, 32910.125, 33412.68359375, 25944.630859375, 0.0, 0.0, 0.0, 193.0, 0.0, 1.0, 1.0, 0.0, 0.0, 1.0, 1.0, 256.0, 1.0, 1.608195168825706E9, 2020-12-17 14:37:48.825
209.0, 39753.6953125, 32447.37890625, 28522.58984375, 23211.50390625, 27625.615234375, 32922.3515625, 33431.66015625, 25960.634765625, 0.0, 0.0, 0.0, 193.0, 0.0, 1.0, 1.0, 0.0, 0.0, 1.0, 1.0, 256.0, 1.0, 1.608195168825708E9, 2020-12-17 14:37:48.825
210.0, 39799.984375, 32507.1015625, 28579.564453125, 23271.919921875, 27641.015625, 32969.91796875, 33474.9765625, 26009.13671875, 0.0, 0.0, 0.0, 193.0, 0.0, 1.0, 1.0, 0.0, 0.0, 1.0, 1.0, 256.0, 1.0, 1.608195168885079E9, 2020-12-17 14:37:48.885
211.0, 39822.24609375, 32527.083984375, 28599.615234375, 23296.3515625, 27644.279296875, 32991.53125, 33497.10546875, 26038.59765625, 0.0, 0.0, 0.0, 193.0, 0.0, 1.0, 1.0, 0.0, 0.0, 1.0, 1.0, 256.0, 1.0, 1.608195168885085E9, 2020-12-17 14:37:48.885
212.0, 39791.35546875, 32483.87890625, 28557.884765625, 23252.2734375, 27628.7890625, 32962.5625, 33461.72265625, 25995.5703125, 0.0, 0.0, 0.0, 193.0, 0.0, 1.0, 1.0, 0.0, 0.0, 1.0, 1.0, 256.0, 1.0, 1.608195168885086E9, 2020-12-17 14:37:48.885
213.0, 39746.49609375, 32433.408203125, 28509.671875, 23200.439453125, 27611.310546875, 32915.78125, 33419.56640625, 25949.771484375, 0.0, 0.0, 0.0, 193.0, 0.0, 1.0, 1.0, 0.0, 0.0, 1.0, 1.0, 256.0, 1.0, 1.608195168885088E9, 2020-12-17 14:37:48.885
214.0, 39749.89453125, 32439.533203125, 28516.66796875, 23210.564453125, 27616.16015625, 32920.02734375, 33420.4609375, 25953.794921875, 0.0, 0.0, 0.0, 193.0, 0.0, 1.0, 1.0, 0.0, 0.0, 1.0, 1.0, 256.0, 1.0, 1.60819516888509E9, 2020-12-17 14:37:48.885
