%OpenBCI Raw EEG Data
%Number of channels = 8
%Sample Rate = 250 Hz
%Board = OpenBCI_GUI$BoardCytonSerial
Sample Index, EXG Channel 0, EXG Channel 1, EXG Channel 2, EXG Channel 3, EXG Channel 4, EXG Channel 5, EXG Channel 6, EXG Channel 7, Accel Channel 0, Accel Channel 1, Accel Channel 2, Other, Other, Other, Other, Other, Other, Other, Analog Channel 0, Analog Channel 1, Analog Channel 2, Timestamp, Timestamp (Formatted)
183.0, 40566.58203125, 30859.509765625, 29446.611328125, 23890.728515625, 27438.955078125, 34459.05859375, 34034.3515625, 27668.083984375, 0.0, 0.0, 0.0, 193.0, 0.0, 1.0, 1.0, 0.0, 0.0, 1.0, 1.0, 256.0, 1.0, 1.608195519205216E9, 2020-12-17 14:43:39.205
184.0, 40509.13671875, 30799.451171875, 29387.3125, 23828.0546875, 27386.228515625, 34401.078125, 33979.07421875, 27608.26953125, 0.0, 0.0, 0.0, 193.0, 0.0, 1.0, 1.0, 0.0, 0.0, 1.0, 1.0, 256.0, 1.0, 1.60819551920522E9, 2020-12-17 14:43:39.205
185.0, 40453.63671875, 30745.359375, 29334.00390625, 23766.474609375, 27355.60546875, 34344.66015625, 33936.453125, 27560.416015625, 0.0, 0.0, 0.0, 193.0, 0.0, 1.0, 1.0, 0.0, 0.0, 1.0, 1.0, 256.0, 1.0, 1.608195519205224E9, 2020-12-17 14:43:39.205
186.0, 40472.61328125, 30769.4765625, 29359.88671875, 23795.2421875, 27378.740234375, 34365.828125, 33962.87109375, 27590.74609375, 0.0, 0.0, 0.0, 193.0, 0.0, 1.0, 1.0, 0.0, 0.0, 1.0, 1.0, 256.0, 1.0, 1.608195519205227E9, 2020-12-17 14:43:39.205
187.0, 40543.87109375, 30843.953125, 29431.14453125, 23865.58203125, 27428.673828125, 34431.41015625, 34024.515625, 27667.837890625, 0.0, 0.0, 0.0, 193.0, 0.0, 1.0, 1.0, 0.0, 0.0, 1.0, 1.0, 256.0, 1.0, 1.60819551920523E9, 2020-12-17 14:43:39.205
188.0, 40554.0859375, 30854.59375, 29439.458984375, 23876.556640625, 27428.16015625, 34439.23046875, 34024.0703125, 27670.85546875, 0.0, 0.0, 0.0, 193.0, 0.0, 1.0, 1.0, 0.0, 0.0, 1.0, 1.0, 256.0, 1.0, 1.608195519205233E9, 2020-12-17 14:43:39.205
189.0, 40506.1875, 30800.166015625, 29386.732421875, 23822.95703125, 27388.6875, 34389.1171875, 33978.7421875, 27611.2421875, 0.0, 0.0, 0.0, 193.0, 0.0, 1.0, 1.0, 0.0, 0.0, 1.0, 1.0, 256.0, 1.0, 1.608195519205237E9, 2020-12-17 14:43:39.205
190.0, 40457.21484375, 30740.8671875, 29330.31640625, 23758.853515625, 27349.326171875, 34334.58203125, 33933.12109375, 27557.486328125, 0.0, 0.0, 0.0, 193.0, 0.0, 1.0, 1.0, 0.0, 0.0, 1.0, 1.0, 256.0, 1.0, 1.60819551920524E9, 2020-12-17 14:43:39.205
191.0, 40456.74609375, 30750.25390625, 29339.2109375, 23770.275390625, 27350.0625, 34337.5546875, 33936.85546875, 27561.890625, 0.0, 0.0, 0.0, 193.0, 0.0, 1.0, 1.0, 0.0, 0.0, 1.0, 1.0, 256.0, 1.0, 1.608195519205244E9, 2020-12-17 14:43:39.205
192.0, 40526.75, 30830.05078125, 29416.638671875, 23854.853515625, 27408.958984375, 34417.19140625, 34002.1875, 27629.458984375, 0.0, 0.0, 0.0, 193.0, 0.0, 1.0, 1.0, 0.0, 0.0, 1.0, 1.0, 256.0, 1.0, 1.608195519205247E9, 2020-12-17 14:43:39.205
193.0, 40552.72265625, 30849.7421875, 29434.765625, 23873.583984375, 27413.966796875, 34434.1796875, 34008.35546875, 27638.35546875, 0.0, 0.0, 0.0, 193.0, 0.0, 1.0, 1.0, 0.0, 0.0, 1.0, 1.0, 256.0, 1.0, 1.608195519205251E9, 2020-12-17 14:43:39.205
194.0, 40509.80859375, 30798.37890625, 29386.462890625, 23824.634765625, 27382.673828125, 34393.38671875, 33971.8359375, 27601.83203125, 0.0, 0.0, 0.0, 193.0, 0.0, 1.0, 1.0, 0.0, 0.0, 1.0, 1.0, 256.0, 1.0, 1.608195519205254E9, 2020-12-17 14:43:39.205
195.0, 40444.8984375, 30736.12890625, 29326.783203125, 23762.8984375, 27349.28125, 34343.2734375, 33928.3828125, 27555.6328125, 0.0, 0.0, 0.0, 193.0, 0.0, 1.0, 1.0, 0.0, 0.0, 1.0, 1.0, 256.0, 1.0, 1.608195519205257E9, 2020-12-17 14:43:39.205
196.0, 40460.6796875, 30761.587890625, 29352.3984375, 23786.033203125, 27366.37890625, 34360.41796875, 33951.94140625, 27565.779296875, 0.0, 0.0, 0.0, 193.0, 0.0, 1.0, 1.0, 0.0, 0.0, 1.0, 1.0, 256.0, 1.0, 1.608195519205261E9, 2020-12-17 14:43:39.205
197.0, 40527.5546875, 30833.3359375, 29420.662109375, 23854.228515625, 27401.6953125, 34415.94140625, 34006.12109375, 27626.77734375, 0.0, 0.0, 0.0, 193.0, 0.0, 1.0, 1.0, 0.0, 0.0, 1.0, 1.0, 256.0, 1.0, 1.608195519205264E9, 2020-12-17 14:43:39.205
198.0, 40552.12109375, 30851.6640625, 29438.9453125, 23876.154296875, 27417.1171875, 34439.4765625, 34018.234375, 27651.96875, 0.0, 0.0, 0.0, 193.0, 0.0, 1.0, 1.0, 0.0, 0.0, 1.0, 1.0, 256.0, 1.0, 1.608195519205268E9, 2020-12-17 14:43:39.205
199.0, 40511.484375, 30801.640625, 29386.75390625, 23820.431640625, 27384.439453125, 34392.984375, 33971.51953125, 27604.404296875, 0.0, 0.0, 0.0, 193.0, 0.0, 1.0, 1.0, 0.0, 0.0, 1.0, 1.0, 256.0, 1.0, 1.608195519205271E9, 2020-12-17 14:43:39.205
0.0, 0.0, 0.0, 0.0, 0.0, 0.0, 0.0, 0.0, 0.0, 0.0, 0.0, 0.0, 193.0, 0.0, 1.0, 1.0, 0.0, 0.0, 1.0, 1.0, 256.0, 1.0, 1.608195519278656E9, 2020-12-17 14:43:39.278
1.0, 40384.81640625, 31419.0859375, 29585.505859375, 25189.990234375, 27048.314453125, 34901.77734375, 33887.2109375, 26822.271484375, 0.0, 0.0, 0.0, 193.0, 0.0, 1.0, 1.0, 0.0, 0.0, 1.0, 1.0, 256.0, 1.0, 1.608195519345339E9, 2020-12-17 14:43:39.345
2.0, 40375.05078125, 31400.265625, 29567.2890625, 25172.689453125, 27027.05859375, 34883.29296875, 33879.453125, 26820.6171875, 0.0, 0.0, 0.0, 193.0, 0.0, 1.0, 1.0, 0.0, 0.0, 1.0, 1.0, 256.0, 1.0, 1.608195519345342E9, 2020-12-17 14:43:39.345
3.0, 40264.05078125, 31273.59765625, 29442.7890625, 25037.373046875, 26926.318359375, 34760.08984375, 33778.0234375, 26714.447265625, 0.0, 0.0, 0.0, 193.0, 0.0, 1.0, 1.0, 0.0, 0.0, 1.0, 1.0, 256.0, 1.0, 1.608195519345343E9, 2020-12-17 14:43:39.345
4.0, 40197.3984375, 31196.685546875, 29368.671875, 24959.1640625, 26879.603515625, 34692.7890625, 33715.4375, 26645.357421875, 0.0, 0.0, 0.0, 193.0, 0.0, 1.0, 1.0, 0.0, 0.0, 1.0, 1.0, 256.0, 1.0, 1.608195519345345E9, 2020-12-17 14:43:39.345
5.0, 40268.34375, 31284.103515625, 29454.8828125, 25044.345703125, 26950.79296875, 34785.9296875, 33790.515625, 26738.005859375, 0.0, 0.0, 0.0, 193.0, 0.0, 1.0, 1.0, 0.0, 0.0, 1.0, 1.0, 256.0, 1.0, 1.608195519345346E9, 2020-12-17 14:43:39.345
6.0, 40380.03515625, 31417.8125, 29583.560546875, 25175.751953125, 27041.765625, 34901.30859375, 33895.3671875, 26854.501953125, 0.0, 0.0, 0.0, 193.0, 0.0, 1.0, 1.0, 0.0, 0.0, 1.0, 1.0, 256.0, 1.0, 1.608195519345347E9, 2020-12-17 14:43:39.345
7.0, 40359.46875, 31386.20703125, 29551.798828125, 25147.90234375, 27016.060546875, 34872.140625, 33870.19921875, 26835.4140625, 0.0, 0.0, 0.0, 193.0, 0.0, 1.0, 1.0, 0.0, 0.0, 1.0, 1.0, 256.0, 1.0, 1.608195519345356E9, 2020-12-17 14:43:39.345
8.0, 40260.921875, 31266.55859375, 29434.36328125, 25022.017578125, 26939.818359375, 34762.23828125, 33772.12109375, 26730.78515625, 0.0, 0.0, 0.0, 193.0, 0.0, 1.0, 1.0, 0.0, 0.0, 1.0, 1.0, 256.0, 1.0, 1.608195519345357E9, 2020-12-17 14:43:39.345
9.0, 40186.55859375, 31183.900390625, 29354.208984375, 24935.248046875, 26873.92578125, 34671.375, 33693.28515625, 26650.4765625, 0.0, 0.0, 0.0, 193.0, 0.0, 1.0, 1.0, 0.0, 0.0, 1.0, 1.0, 256.0, 1.0, 1.608195519345359E9, 2020-12-17 14:43:39.345
10.0, 40254.23828125, 31275.365234375, 29442.990234375, 25027.11328125, 26936.712890625, 34754.01171875, 33766.7578125, 26734.943359375, 0.0, 0.0, 0.0, 193.0, 0.0, 1.0, 1.0, 0.0, 0.0, 1.0, 1.0, 256.0, 1.0, 1.60819551934536E9, 2020-12-17 14:43:39.345
11.0, 40375.921875, 31419.95703125, 29583.671875, 25174.2109375, 27032.935546875, 34891.36328125, 33889.24609375, 26872.96484375, 0.0, 0.0, 0.0, 193.0, 0.0, 1.0, 1.0, 0.0, 0.0, 1.0, 1.0, 256.0, 1.0, 1.608195519345361E9, 2020-12-17 14:43:39.345
12.0, 40362.7578125, 31393.203125, 29555.353515625, 25149.400390625, 27006.427734375, 34866.23828125, 33867.85546875, 26843.595703125, 0.0, 0.0, 0.0, 193.0, 0.0, 1.0, 1.0, 0.0, 0.0, 1.0, 1.0, 256.0, 1.0, 1.608195519345363E9, 2020-12-17 14:43:39.345
13.0, 40253.8828125, 31268.501953125, 29432.083984375, 25015.9140625, 26917.869140625, 34746.8125, 33761.05859375, 26731.12109375, 0.0, 0.0, 0.0, 193.0, 0.0, 1.0, 1.0, 0.0, 0.0, 1.0, 1.0, 256.0, 1.0, 1.608195519345364E9, 2020-12-17 14:43:39.345
14.0, 40179.1796875, 31183.296875, 29349.359375, 24928.318359375, 26857.54296875, 34669.8359375, 33691.90234375, 26661.919921875, 0.0, 0.0, 0.0, 193.0, 0.0, 1.0, 1.0, 0.0, 0.0, 1.0, 1.0, 256.0, 1.0, 1.608195519345366E9, 2020-12-17 14:43:39.345
15.0, 40261.1015625, 31279.56640625, 29446.72265625, 25031.271484375, 26938.611328125, 34769.3203125, 33779.36328125, 26755.86328125, 0.0, 0.0, 0.0, 193.0, 0.0, 1.0, 1.0, 0.0, 0.0, 1.0, 1.0, 256.0, 1.0, 1.608195519345367E9, 2020-12-17 14:43:39.345
16.0, 40386.60546875, 31433.212890625, 29595.005859375, 25185.23046875, 27034.30078125, 34907.2109375, 33905.1796875, 26885.392578125, 0.0, 0.0, 0.0, 193.0, 0.0, 1.0, 1.0, 0.0, 0.0, 1.0, 1.0, 256.0, 1.0, 1.608195519405414E9, 2020-12-17 14:43:39.405
17.0, 40364.2109375, 31398.791015625, 29558.951171875, 25148.1484375, 27006.0703125, 34875.625, 33877.28515625, 26863.95703125, 0.0, 0.0, 0.0, 193.0, 0.0, 1.0, 1.0, 0.0, 0.0, 1.0, 1.0, 256.0, 1.0, 1.608195519405421E9, 2020-12-17 14:43:39.405
18.0, 40260.25, 31266.802734375, 29430.65234375, 25009.03125, 26926.384765625, 34759.48828125, 33766.0859375, 26752.890625, 0.0, 0.0, 0.0, 193.0, 0.0, 1.0, 1.0, 0.0, 0.0, 1.0, 1.0, 256.0, 1.0, 1.608195519405423E9, 2020-12-17 14:43:39.405
19.0, 40182.98046875, 31181.599609375, 29348.95703125, 24933.34765625, 26860.8046875, 34674.90625, 33697.109375, 26681.634765625, 0.0, 0.0, 0.0, 193.0, 0.0, 1.0, 1.0, 0.0, 0.0, 1.0, 1.0, 256.0, 1.0, 1.608195519405424E9, 2020-12-17 14:43:39.405
20.0, 40258.640625, 31280.013671875, 29447.05859375, 25046.4921875, 26927.951171875, 34760.2265625, 33777.91015625, 26775.578125, 0.0, 0.0, 0.0, 193.0, 0.0, 1.0, 1.0, 0.0, 0.0, 1.0, 1.0, 256.0, 1.0, 1.608195519405425E9, 2020-12-17 14:43:39.405
21.0, 40389.625, 31429.48046875, 29591.4296875, 25191.82421875, 27037.4296875, 34897.6640625, 33901.1796875, 26908.548828125, 0.0, 0.0, 0.0, 193.0, 0.0, 1.0, 1.0, 0.0, 0.0, 1.0, 1.0, 256.0, 1.0, 1.608195519405427E9, 2020-12-17 14:43:39.405
22.0, 40370.2890625, 31402.03125, 29561.544921875, 25156.84375, 27016.328125, 34871.58203125, 33875.765625, 26888.90234375, 0.0, 0.0, 0.0, 193.0, 0.0, 1.0, 1.0, 0.0, 0.0, 1.0, 1.0, 256.0, 1.0, 1.608195519405428E9, 2020-12-17 14:43:39.405
23.0, 40253.27734375, 31270.40234375, 29431.5234375, 25018.41796875, 26910.11328125, 34746.92578125, 33766.6015625, 26779.154296875, 0.0, 0.0, 0.0, 193.0, 0.0, 1.0, 1.0, 0.0, 0.0, 1.0, 1.0, 256.0, 1.0, 1.60819551940543E9, 2020-12-17 14:43:39.405
24.0, 40184.8125, 31193.51171875, 29357.025390625, 24937.349609375, 26852.021484375, 34665.83203125, 33700.68359375, 26702.578125, 0.0, 0.0, 0.0, 193.0, 0.0, 1.0, 1.0, 0.0, 0.0, 1.0, 1.0, 256.0, 1.0, 1.608195519405431E9, 2020-12-17 14:43:39.405
25.0, 40260.65234375, 31288.6640625, 29452.9140625, 25034.7578125, 26920.775390625, 34754.76953125, 33777.375, 26774.125, 0.0, 0.0, 0.0, 193.0, 0.0, 1.0, 1.0, 0.0, 0.0, 1.0, 1.0, 256.0, 1.0, 1.608195519405432E9, 2020-12-17 14:43:39.405
26.0, 40381.5078125, 31432.20703125, 29591.541015625, 25179.931640625, 27016.73046875, 34885.91015625, 33894.96484375, 26906.58203125, 0.0, 0.0, 0.0, 193.0, 0.0, 1.0, 1.0, 0.0, 0.0, 1.0, 1.0, 256.0, 1.0, 1.608195519405434E9, 2020-12-17 14:43:39.405
27.0, 40361.23828125, 31400.130859375, 29559.599609375, 25151.58984375, 26994.87109375, 34864.1171875, 33870.89453125, 26896.232421875, 0.0, 0.0, 0.0, 193.0, 0.0, 1.0, 1.0, 0.0, 0.0, 1.0, 1.0, 256.0, 1.0, 1.608195519405435E9, 2020-12-17 14:43:39.405
28.0, 40258.53125, 31270.044921875, 29432.150390625, 25020.02734375, 26915.5234375, 34751.93359375, 33759.6484375, 26781.79296875, 0.0, 0.0, 0.0, 193.0, 0.0, 1.0, 1.0, 0.0, 0.0, 1.0, 1.0, 256.0, 1.0, 1.608195519405437E9, 2020-12-17 14:43:39.405
29.0, 40177.81640625, 31184.2578125, 29348.912109375, 24927.78125, 26848.623046875, 34657.5625, 33682.9609375, 26695.26953125, 0.0, 0.0, 0.0, 193.0, 0.0, 1.0, 1.0, 0.0, 0.0, 1.0, 1.0, 256.0, 1.0, 1.608195519405438E9, 2020-12-17 14:43:39.405
30.0, 40263.29296875, 31286.115234375, 29454.166015625, 25034.421875, 26933.158203125, 34766.34765625, 33783.07421875, 26802.736328125, 0.0, 0.0, 0.0, 193.0, 0.0, 1.0, 1.0, 0.0, 0.0, 1.0, 1.0, 256.0, 1.0, 1.608195519405448E9, 2020-12-17 14:43:39.405
31.0, 40401.58203125, 31443.515625, 29606.404296875, 25194.236328125, 27050.884765625, 34923.4609375, 33918.390625, 26960.583984375, 0.0, 0.0, 0.0, 193.0, 0.0, 1.0, 1.0, 0.0, 0.0, 1.0, 1.0, 256.0, 1.0, 1.608195519464932E9, 2020-12-17 14:43:39.464
32.0, 40380.125, 31415.287109375, 29573.234375, 25168.599609375, 27014.541015625, 34885.23828125, 33886.0703125, 26929.759765625, 0.0, 0.0, 0.0, 193.0, 0.0, 1.0, 1.0, 0.0, 0.0, 1.0, 1.0, 256.0, 1.0, 1.608195519464943E9, 2020-12-17 14:43:39.464
33.0, 40271.09375, 31286.583984375, 29446.298828125, 25036.3671875, 26923.681640625, 34760.06640625, 33768.9453125, 26807.51953125, 0.0, 0.0, 0.0, 193.0, 0.0, 1.0, 1.0, 0.0, 0.0, 1.0, 1.0, 256.0, 1.0, 1.608195519464945E9, 2020-12-17 14:43:39.464
34.0, 40189.8671875, 31193.9140625, 29357.65234375, 24939.091796875, 26864.91796875, 34670.4375, 33691.18359375, 26721.15234375, 0.0, 0.0, 0.0, 193.0, 0.0, 1.0, 1.0, 0.0, 0.0, 1.0, 1.0, 256.0, 1.0, 1.608195519464947E9, 2020-12-17 14:43:39.464
35.0, 40266.95703125, 31283.166015625, 29447.169921875, 25035.583984375, 26946.32421875, 34760.203125, 33769.5078125, 26800.1875, 0.0, 0.0, 0.0, 193.0, 0.0, 1.0, 1.0, 0.0, 0.0, 1.0, 1.0, 256.0, 1.0, 1.60819551946495E9, 2020-12-17 14:43:39.464
36.0, 40400.015625, 31440.09765625, 29599.095703125, 25194.505859375, 27056.740234375, 34910.83203125, 33901.62890625, 26932.599609375, 0.0, 0.0, 0.0, 193.0, 0.0, 1.0, 1.0, 0.0, 0.0, 1.0, 1.0, 256.0, 1.0, 1.608195519464952E9, 2020-12-17 14:43:39.464
37.0, 40379.140625, 31414.884765625, 29570.931640625, 25160.083984375, 27028.779296875, 34882.5546875, 33876.50390625, 26901.798828125, 0.0, 0.0, 0.0, 193.0, 0.0, 1.0, 1.0, 0.0, 0.0, 1.0, 1.0, 256.0, 1.0, 1.608195519464955E9, 2020-12-17 14:43:39.464
38.0, 40282.26953125, 31286.427734375, 29448.376953125, 25034.220703125, 26952.939453125, 34774.08203125, 33776.8828125, 26799.583984375, 0.0, 0.0, 0.0, 193.0, 0.0, 1.0, 1.0, 0.0, 0.0, 1.0, 1.0, 256.0, 1.0, 1.608195519464957E9, 2020-12-17 14:43:39.464
39.0, 40211.30078125, 31207.68359375, 29375.689453125, 24964.23828125, 26912.794921875, 34713.77734375, 33721.8984375, 26742.54296875, 0.0, 0.0, 0.0, 193.0, 0.0, 1.0, 1.0, 0.0, 0.0, 1.0, 1.0, 256.0, 1.0, 1.60819551946496E9, 2020-12-17 14:43:39.464
40.0, 40284.32421875, 31304.041015625, 29474.484375, 25072.486328125, 26990.087890625, 34815.1640625, 33815.52734375, 26845.8515625, 0.0, 0.0, 0.0, 193.0, 0.0, 1.0, 1.0, 0.0, 0.0, 1.0, 1.0, 256.0, 1.0, 1.608195519464963E9, 2020-12-17 14:43:39.464
41.0, 40390.671875, 31444.90234375, 29609.779296875, 25210.509765625, 27062.775390625, 34939.5546875, 33939.2890625, 26996.771484375, 0.0, 0.0, 0.0, 193.0, 0.0, 1.0, 1.0, 0.0, 0.0, 1.0, 1.0, 256.0, 1.0, 1.608195519464965E9, 2020-12-17 14:43:39.464
42.0, 40372.61328125, 31421.65625, 29583.6953125, 25180.201171875, 27020.552734375, 34903.76953125, 33922.99609375, 26999.810546875, 0.0, 0.0, 0.0, 193.0, 0.0, 1.0, 1.0, 0.0, 0.0, 1.0, 1.0, 256.0, 1.0, 1.608195519464968E9, 2020-12-17 14:43:39.464
43.0, 40253.14453125, 31285.53515625, 29448.712890625, 25031.046875, 26902.9609375, 34758.1015625, 33798.18359375, 26875.46875, 0.0, 0.0, 0.0, 193.0, 0.0, 1.0, 1.0, 0.0, 0.0, 1.0, 1.0, 256.0, 1.0, 1.60819551946497E9, 2020-12-17 14:43:39.464
44.0, 40174.0390625, 31189.041015625, 29353.560546875, 24928.54296875, 26842.431640625, 34663.328125, 33707.63671875, 26782.037109375, 0.0, 0.0, 0.0, 193.0, 0.0, 1.0, 1.0, 0.0, 0.0, 1.0, 1.0, 256.0, 1.0, 1.608195519464973E9, 2020-12-17 14:43:39.464
45.0, 40251.66796875, 31280.103515625, 29441.984375, 25021.302734375, 26904.4140625, 34744.9140625, 33779.23046875, 26867.935546875, 0.0, 0.0, 0.0, 193.0, 0.0, 1.0, 1.0, 0.0, 0.0, 1.0, 1.0, 256.0, 1.0, 1.608195519464976E9, 2020-12-17 14:43:39.464
46.0, 40373.26171875, 31431.6484375, 29586.958984375, 25170.90234375, 26988.45703125, 34874.44140625, 33901.13671875, 27001.263671875, 0.0, 0.0, 0.0, 193.0, 0.0, 1.0, 1.0, 0.0, 0.0, 1.0, 1.0, 256.0, 1.0, 1.608195519524607E9, 2020-12-17 14:43:39.524
47.0, 40352.453125, 31399.349609375, 29551.419921875, 25131.630859375, 26961.544921875, 34844.984375, 33873.0859375, 26970.91015625, 0.0, 0.0, 0.0, 193.0, 0.0, 1.0, 1.0, 0.0, 0.0, 1.0, 1.0, 256.0, 1.0, 1.608195519524615E9, 2020-12-17 14:43:39.524
48.0, 40248.8515625, 31273.46484375, 29427.2109375, 24998.189453125, 26880.765625, 34725.87109375, 33756.80859375, 26848.712890625, 0.0, 0.0, 0.0, 193.0, 0.0, 1.0, 1.0, 0.0, 0.0, 1.0, 1.0, 256.0, 1.0, 1.608195519524618E9, 2020-12-17 14:43:39.524
49.0, 40178.35546875, 31187.1875, 29342.095703125, 24910.19140625, 26838.431640625, 34647.19140625, 33674.62109375, 26765.36328125, 0.0, 0.0, 0.0, 193.0, 0.0, 1.0, 1.0, 0.0, 0.0, 1.0, 1.0, 256.0, 1.0, 1.608195519524621E9, 2020-12-17 14:43:39.524
50.0, 40257.3671875, 31286.80859375, 29444.130859375, 25026.822265625, 26921.19921875, 34745.16015625, 33764.34375, 26855.6640625, 0.0, 0.0, 0.0, 193.0, 0.0, 1.0, 1.0, 0.0, 0.0, 1.0, 1.0, 256.0, 1.0, 1.608195519524623E9, 2020-12-17 14:43:39.524
51.0, 40393.37890625, 31444.74609375, 29598.357421875, 25195.35546875, 27030.8125, 34895.51953125, 33902.54296875, 27004.52734375, 0.0, 0.0, 0.0, 193.0, 0.0, 1.0, 1.0, 0.0, 0.0, 1.0, 1.0, 256.0, 1.0, 1.608195519524626E9, 2020-12-17 14:43:39.524
52.0, 40367.2265625, 31417.052734375, 29567.310546875, 25160.576171875, 27002.6953125, 34868.02734375, 33875.25390625, 26966.685546875, 0.0, 0.0, 0.0, 193.0, 0.0, 1.0, 1.0, 0.0, 0.0, 1.0, 1.0, 256.0, 1.0, 1.608195519524629E9, 2020-12-17 14:43:39.524
53.0, 40252.4296875, 31278.248046875, 29431.078125, 25016.5625, 26925.201171875, 34745.3828125, 33761.59375, 26847.3046875, 0.0, 0.0, 0.0, 193.0, 0.0, 1.0, 1.0, 0.0, 0.0, 1.0, 1.0, 256.0, 1.0, 1.60819551952464E9, 2020-12-17 14:43:39.524
54.0, 40184.14453125, 31191.3671875, 29348.263671875, 24929.302734375, 26870.953125, 34665.7421875, 33691.7890625, 26773.232421875, 0.0, 0.0, 0.0, 193.0, 0.0, 1.0, 1.0, 0.0, 0.0, 1.0, 1.0, 256.0, 1.0, 1.608195519524642E9, 2020-12-17 14:43:39.524
55.0, 40264.1640625, 31288.708984375, 29447.728515625, 25036.947265625, 26948.357421875, 34764.91796875, 33783.0078125, 26869.0078125, 0.0, 0.0, 0.0, 193.0, 0.0, 1.0, 1.0, 0.0, 0.0, 1.0, 1.0, 256.0, 1.0, 1.608195519524645E9, 2020-12-17 14:43:39.524
56.0, 40400.171875, 31449.060546875, 29605.822265625, 25208.810546875, 27065.078125, 34926.609375, 33924.08984375, 27030.388671875, 0.0, 0.0, 0.0, 193.0, 0.0, 1.0, 1.0, 0.0, 0.0, 1.0, 1.0, 256.0, 1.0, 1.608195519524647E9, 2020-12-17 14:43:39.524
57.0, 40380.75, 31423.19921875, 29576.7890625, 25173.44921875, 27025.29296875, 34889.9765625, 33893.53515625, 27003.341796875, 0.0, 0.0, 0.0, 193.0, 0.0, 1.0, 1.0, 0.0, 0.0, 1.0, 1.0, 256.0, 1.0, 1.60819551952465E9, 2020-12-17 14:43:39.524
58.0, 40269.75, 31289.333984375, 29442.90234375, 25030.82421875, 26929.55859375, 34757.83203125, 33768.5234375, 26871.736328125, 0.0, 0.0, 0.0, 193.0, 0.0, 1.0, 1.0, 0.0, 0.0, 1.0, 1.0, 256.0, 1.0, 1.608195519524653E9, 2020-12-17 14:43:39.524
59.0, 40191.4765625, 31200.10546875, 29357.7421875, 24941.6171875, 26877.94921875, 34677.8125, 33697.734375, 26794.689453125, 0.0, 0.0, 0.0, 193.0, 0.0, 1.0, 1.0, 0.0, 0.0, 1.0, 1.0, 256.0, 1.0, 1.608195519524655E9, 2020-12-17 14:43:39.524
60.0, 40275.49609375, 31299.326171875, 29459.083984375, 25054.494140625, 26970.57421875, 34790.9140625, 33797.22265625, 26901.173828125, 0.0, 0.0, 0.0, 193.0, 0.0, 1.0, 1.0, 0.0, 0.0, 1.0, 1.0, 256.0, 1.0, 1.608195519524658E9, 2020-12-17 14:43:39.524
61.0, 40409.2265625, 31455.67578125, 29610.763671875, 25209.59375, 27074.107421875, 34932.9609375, 33926.1484375, 27037.67578125, 0.0, 0.0, 0.0, 193.0, 0.0, 1.0, 1.0, 0.0, 0.0, 1.0, 1.0, 256.0, 1.0, 1.608195519584854E9, 2020-12-17 14:43:39.584
62.0, 40389.3984375, 31427.4453125, 29579.291015625, 25172.48828125, 27044.3359375, 34897.5078125, 33900.28515625, 27013.625, 0.0, 0.0, 0.0, 193.0, 0.0, 1.0, 1.0, 0.0, 0.0, 1.0, 1.0, 256.0, 1.0, 1.608195519584859E9, 2020-12-17 14:43:39.584
63.0, 40278.6015625, 31301.671875, 29454.412109375, 25038.802734375, 26948.71484375, 34769.76953125, 33788.70703125, 26895.49609375, 0.0, 0.0, 0.0, 193.0, 0.0, 1.0, 1.0, 0.0, 0.0, 1.0, 1.0, 256.0, 1.0, 1.608195519584861E9, 2020-12-17 14:43:39.584
64.0, 40199.453125, 31211.1484375, 29367.93359375, 24949.93359375, 26884.521484375, 34679.7578125, 33710.72265625, 26812.615234375, 0.0, 0.0, 0.0, 193.0, 0.0, 1.0, 1.0, 0.0, 0.0, 1.0, 1.0, 256.0, 1.0, 1.608195519584863E9, 2020-12-17 14:43:39.584
65.0, 40281.484375, 31306.43359375, 29464.693359375, 25054.427734375, 26969.123046875, 34783.76171875, 33791.3203125, 26900.078125, 0.0, 0.0, 0.0, 193.0, 0.0, 1.0, 1.0, 0.0, 0.0, 1.0, 1.0, 256.0, 1.0, 1.608195519584866E9, 2020-12-17 14:43:39.584
66.0, 40411.8203125, 31460.548828125, 29615.45703125, 25213.169921875, 27082.087890625, 34933.78515625, 33927.51171875, 27054.685546875, 0.0, 0.0, 0.0, 193.0, 0.0, 1.0, 1.0, 0.0, 0.0, 1.0, 1.0, 256.0, 1.0, 1.608195519584868E9, 2020-12-17 14:43:39.584
67.0, 40390.78515625, 31437.4140625, 29588.5234375, 25180.826171875, 27049.275390625, 34900.99609375, 33903.3046875, 27036.9140625, 0.0, 0.0, 0.0, 193.0, 0.0, 1.0, 1.0, 0.0, 0.0, 1.0, 1.0, 256.0, 1.0, 1.60819551958487E9, 2020-12-17 14:43:39.584
68.0, 40288.703125, 31311.619140625, 29464.046875, 25049.576171875, 26959.2421875, 34783.06640625, 33799.03125, 26920.283203125, 0.0, 0.0, 0.0, 193.0, 0.0, 1.0, 1.0, 0.0, 0.0, 1.0, 1.0, 256.0, 1.0, 1.608195519584872E9, 2020-12-17 14:43:39.584
69.0, 40207.45703125, 31218.658203125, 29375.197265625, 24957.107421875, 26895.697265625, 34699.25, 33722.87890625, 26840.017578125, 0.0, 0.0, 0.0, 193.0, 0.0, 1.0, 1.0, 0.0, 0.0, 1.0, 1.0, 256.0, 1.0, 1.608195519584874E9, 2020-12-17 14:43:39.584
70.0, 40272.56640625, 31299.728515625, 29452.87109375, 25039.16015625, 26958.728515625, 34771.01953125, 33783.87890625, 26912.953125, 0.0, 0.0, 0.0, 193.0, 0.0, 1.0, 1.0, 0.0, 0.0, 1.0, 1.0, 256.0, 1.0, 1.608195519584876E9, 2020-12-17 14:43:39.584
71.0, 40402.8125, 31454.6484375, 29602.626953125, 25195.734375, 27061.79296875, 34912.7734375, 33909.25, 27054.70703125, 0.0, 0.0, 0.0, 193.0, 0.0, 1.0, 1.0, 0.0, 0.0, 1.0, 1.0, 256.0, 1.0, 1.608195519584878E9, 2020-12-17 14:43:39.584
72.0, 40383.05078125, 31432.720703125, 29578.353515625, 25169.203125, 27037.96484375, 34891.62890625, 33893.53515625, 27046.146484375, 0.0, 0.0, 0.0, 193.0, 0.0, 1.0, 1.0, 0.0, 0.0, 1.0, 1.0, 256.0, 1.0, 1.60819551958488E9, 2020-12-17 14:43:39.584
73.0, 40269.37109375, 31299.236328125, 29447.1484375, 25031.494140625, 26939.841796875, 34763.01953125, 33777.91015625, 26922.876953125, 0.0, 0.0, 0.0, 193.0, 0.0, 1.0, 1.0, 0.0, 0.0, 1.0, 1.0, 256.0, 1.0, 1.608195519584883E9, 2020-12-17 14:43:39.584
74.0, 40196.16796875, 31208.666015625, 29361.2734375, 24941.05859375, 26881.771484375, 34686.41796875, 33709.22265625, 26834.005859375, 0.0, 0.0, 0.0, 193.0, 0.0, 1.0, 1.0, 0.0, 0.0, 1.0, 1.0, 256.0, 1.0, 1.608195519584885E9, 2020-12-17 14:43:39.584
75.0, 40281.1953125, 31304.935546875, 29454.45703125, 25039.16015625, 26963.712890625, 34779.515625, 33785.12890625, 26913.466796875, 0.0, 0.0, 0.0, 193.0, 0.0, 1.0, 1.0, 0.0, 0.0, 1.0, 1.0, 256.0, 1.0, 1.608195519584887E9, 2020-12-17 14:43:39.584
76.0, 40404.93359375, 31456.904296875, 29603.7890625, 25200.0703125, 27069.34765625, 34921.60546875, 33914.8828125, 27064.228515625, 0.0, 0.0, 0.0, 193.0, 0.0, 1.0, 1.0, 0.0, 0.0, 1.0, 1.0, 256.0, 1.0, 1.608195519645392E9, 2020-12-17 14:43:39.645
77.0, 40386.80859375, 31436.51953125, 29582.666015625, 25184.603515625, 27043.576171875, 34897.26171875, 33900.265625, 27050.146484375, 0.0, 0.0, 0.0, 193.0, 0.0, 1.0, 1.0, 0.0, 0.0, 1.0, 1.0, 256.0, 1.0, 1.608195519645401E9, 2020-12-17 14:43:39.645
78.0, 40286.42578125, 31310.1875, 29458.01171875, 25051.744140625, 26955.46484375, 34781.94921875, 33794.18359375, 26938.611328125, 0.0, 0.0, 0.0, 193.0, 0.0, 1.0, 1.0, 0.0, 0.0, 1.0, 1.0, 256.0, 1.0, 1.608195519645403E9, 2020-12-17 14:43:39.645
79.0, 40202.49609375, 31216.958984375, 29367.7109375, 24951.83203125, 26891.78515625, 34693.90625, 33712.80078125, 26850.634765625, 0.0, 0.0, 0.0, 193.0, 0.0, 1.0, 1.0, 0.0, 0.0, 1.0, 1.0, 256.0, 1.0, 1.608195519645404E9, 2020-12-17 14:43:39.645
80.0, 40273.28125, 31305.830078125, 29456.333984375, 25047.05078125, 26963.4453125, 34779.0, 33787.85546875, 26929.693359375, 0.0, 0.0, 0.0, 193.0, 0.0, 1.0, 1.0, 0.0, 0.0, 1.0, 1.0, 256.0, 1.0, 1.608195519645406E9, 2020-12-17 14:43:39.645
81.0, 40418.5234375, 31470.29296875, 29619.8828125, 25223.25, 27096.99609375, 34948.42578125, 33936.00390625, 27093.53125, 0.0, 0.0, 0.0, 193.0, 0.0, 1.0, 1.0, 0.0, 0.0, 1.0, 1.0, 256.0, 1.0, 1.608195519645407E9, 2020-12-17 14:43:39.645
82.0, 40408.12890625, 31453.888671875, 29602.828125, 25205.7265625, 27074.845703125, 34938.2109375, 33928.26953125, 27082.6015625, 0.0, 0.0, 0.0, 193.0, 0.0, 1.0, 1.0, 0.0, 0.0, 1.0, 1.0, 256.0, 1.0, 1.608195519645409E9, 2020-12-17 14:43:39.645
83.0, 40293.66796875, 31314.48046875, 29464.671875, 25056.841796875, 26967.84765625, 34798.55859375, 33805.53515625, 26958.482421875, 0.0, 0.0, 0.0, 193.0, 0.0, 1.0, 1.0, 0.0, 0.0, 1.0, 1.0, 256.0, 1.0, 1.60819551964541E9, 2020-12-17 14:43:39.645
84.0, 40213.26953125, 31226.1015625, 29377.74609375, 24961.51171875, 26905.62109375, 34709.7109375, 33723.1484375, 26878.10546875, 0.0, 0.0, 0.0, 193.0, 0.0, 1.0, 1.0, 0.0, 0.0, 1.0, 1.0, 256.0, 1.0, 1.608195519645412E9, 2020-12-17 14:43:39.645
85.0, 40279.02734375, 31311.865234375, 29462.97265625, 25049.173828125, 26971.24609375, 34789.953125, 33794.76171875, 26956.671875, 0.0, 0.0, 0.0, 193.0, 0.0, 1.0, 1.0, 0.0, 0.0, 1.0, 1.0, 256.0, 1.0, 1.608195519645413E9, 2020-12-17 14:43:39.645
86.0, 40428.87109375, 31481.58203125, 29626.498046875, 25223.47265625, 27096.259765625, 34948.73828125, 33941.03515625, 27110.18359375, 0.0, 0.0, 0.0, 193.0, 0.0, 1.0, 1.0, 0.0, 0.0, 1.0, 1.0, 256.0, 1.0, 1.608195519645415E9, 2020-12-17 14:43:39.645
87.0, 40434.50390625, 31477.111328125, 29620.1953125, 25219.44921875, 27095.095703125, 34948.0234375, 33941.32421875, 27116.375, 0.0, 0.0, 0.0, 193.0, 0.0, 1.0, 1.0, 0.0, 0.0, 1.0, 1.0, 256.0, 1.0, 1.608195519645417E9, 2020-12-17 14:43:39.645
88.0, 40308.28515625, 31332.919921875, 29479.06640625, 25070.162109375, 26986.33203125, 34808.796875, 33814.4765625, 26988.3671875, 0.0, 0.0, 0.0, 193.0, 0.0, 1.0, 1.0, 0.0, 0.0, 1.0, 1.0, 256.0, 1.0, 1.608195519645418E9, 2020-12-17 14:43:39.645
89.0, 40233.83203125, 31243.021484375, 29393.638671875, 24982.677734375, 26930.654296875, 34728.3046875, 33740.8046875, 26905.978515625, 0.0, 0.0, 0.0, 193.0, 0.0, 1.0, 1.0, 0.0, 0.0, 1.0, 1.0, 256.0, 1.0, 1.60819551964542E9, 2020-12-17 14:43:39.645
90.0, 40318.45703125, 31340.787109375, 29491.986328125, 25087.955078125, 27020.642578125, 34829.6484375, 33829.1640625, 26996.837890625, 0.0, 0.0, 0.0, 193.0, 0.0, 1.0, 1.0, 0.0, 0.0, 1.0, 1.0, 256.0, 1.0, 1.608195519645421E9, 2020-12-17 14:43:39.645
91.0, 40456.54296875, 31506.369140625, 29653.833984375, 25258.140625, 27136.55859375, 34986.22265625, 33972.23828125, 27151.310546875, 0.0, 0.0, 0.0, 193.0, 0.0, 1.0, 1.0, 0.0, 0.0, 1.0, 1.0, 256.0, 1.0, 1.60819551970546E9, 2020-12-17 14:43:39.705
92.0, 40465.26171875, 31507.2421875, 29655.443359375, 25259.326171875, 27132.78125, 34994.203125, 33977.890625, 27162.888671875, 0.0, 0.0, 0.0, 193.0, 0.0, 1.0, 1.0, 0.0, 0.0, 1.0, 1.0, 256.0, 1.0, 1.608195519705471E9, 2020-12-17 14:43:39.705
93.0, 40359.89453125, 31385.669921875, 29534.900390625, 25129.015625, 27043.28515625, 34878.8671875, 33876.9296875, 27054.55078125, 0.0, 0.0, 0.0, 193.0, 0.0, 1.0, 1.0, 0.0, 0.0, 1.0, 1.0, 256.0, 1.0, 1.608195519705475E9, 2020-12-17 14:43:39.705
94.0, 40279.02734375, 31293.08984375, 29443.83984375, 25031.13671875, 26981.416015625, 34783.24609375, 33792.05859375, 26968.02734375, 0.0, 0.0, 0.0, 193.0, 0.0, 1.0, 1.0, 0.0, 0.0, 1.0, 1.0, 256.0, 1.0, 1.60819551970548E9, 2020-12-17 14:43:39.705
95.0, 40332.37890625, 31365.12890625, 29514.830078125, 25106.08203125, 27038.3671875, 34846.34765625, 33846.26171875, 27033.740234375, 0.0, 0.0, 0.0, 193.0, 0.0, 1.0, 1.0, 0.0, 0.0, 1.0, 1.0, 256.0, 1.0, 1.608195519705484E9, 2020-12-17 14:43:39.705
96.0, 40413.96484375, 31475.234375, 29620.150390625, 25217.70703125, 27085.6640625, 34945.67578125, 33933.12109375, 27122.677734375, 0.0, 0.0, 0.0, 193.0, 0.0, 1.0, 1.0, 0.0, 0.0, 1.0, 1.0, 256.0, 1.0, 1.608195519705489E9, 2020-12-17 14:43:39.705
97.0, 40390.76171875, 31446.9140625, 29587.650390625, 25184.626953125, 27046.705078125, 34915.27734375, 33904.66796875, 27094.068359375, 0.0, 0.0, 0.0, 193.0, 0.0, 1.0, 1.0, 0.0, 0.0, 1.0, 1.0, 256.0, 1.0, 1.608195519705493E9, 2020-12-17 14:43:39.705
98.0, 40280.2109375, 31322.146484375, 29465.208984375, 25053.064453125, 26954.81640625, 34797.57421875, 33799.2578125, 26985.931640625, 0.0, 0.0, 0.0, 193.0, 0.0, 1.0, 1.0, 0.0, 0.0, 1.0, 1.0, 256.0, 1.0, 1.608195519705498E9, 2020-12-17 14:43:39.705
99.0, 40203.65625, 31233.1640625, 29377.8125, 24962.830078125, 26901.888671875, 34707.33984375, 33716.66796875, 26902.08984375, 0.0, 0.0, 0.0, 193.0, 0.0, 1.0, 1.0, 0.0, 0.0, 1.0, 1.0, 256.0, 1.0, 1.608195519705502E9, 2020-12-17 14:43:39.705
100.0, 40288.19140625, 31328.60546875, 29471.98046875, 25061.109375, 26985.08203125, 34798.4921875, 33798.83203125, 26988.74609375, 0.0, 0.0, 0.0, 193.0, 0.0, 1.0, 1.0, 0.0, 0.0, 1.0, 1.0, 256.0, 1.0, 1.608195519705518E9, 2020-12-17 14:43:39.705
101.0, 40416.87109375, 31477.9375, 29620.6640625, 25216.857421875, 27094.1796875, 34943.734375, 33940.296875, 27147.51171875, 0.0, 0.0, 0.0, 193.0, 0.0, 1.0, 1.0, 0.0, 0.0, 1.0, 1.0, 256.0, 1.0, 1.608195519705522E9, 2020-12-17 14:43:39.705
102.0, 40408.7109375, 31454.1328125, 29596.255859375, 25191.33203125, 27064.943359375, 34920.59765625, 33919.5078125, 27130.658203125, 0.0, 0.0, 0.0, 193.0, 0.0, 1.0, 1.0, 0.0, 0.0, 1.0, 1.0, 256.0, 1.0, 1.608195519705527E9, 2020-12-17 14:43:39.705
103.0, 40296.125, 31333.814453125, 29471.51171875, 25055.455078125, 26967.84765625, 34795.96484375, 33800.75390625, 27009.935546875, 0.0, 0.0, 0.0, 193.0, 0.0, 1.0, 1.0, 0.0, 0.0, 1.0, 1.0, 256.0, 1.0, 1.608195519705532E9, 2020-12-17 14:43:39.705
104.0, 40210.96484375, 31242.931640625, 29380.80859375, 24957.30859375, 26900.123046875, 34702.421875, 33714.921875, 26923.009765625, 0.0, 0.0, 0.0, 193.0, 0.0, 1.0, 1.0, 0.0, 0.0, 1.0, 1.0, 256.0, 1.0, 1.608195519705536E9, 2020-12-17 14:43:39.705
105.0, 40288.125, 31329.34375, 29470.572265625, 25055.857421875, 26982.48828125, 34795.13671875, 33799.43359375, 27010.697265625, 0.0, 0.0, 0.0, 193.0, 0.0, 1.0, 1.0, 0.0, 0.0, 1.0, 1.0, 256.0, 1.0, 1.608195519705541E9, 2020-12-17 14:43:39.705
106.0, 40426.1015625, 31479.369140625, 29620.59765625, 25220.880859375, 27094.42578125, 34947.53125, 33936.5625, 27166.33203125, 0.0, 0.0, 0.0, 193.0, 0.0, 1.0, 1.0, 0.0, 0.0, 1.0, 1.0, 256.0, 1.0, 1.608195519764835E9, 2020-12-17 14:43:39.764
107.0, 40418.546875, 31463.69921875, 29601.509765625, 25202.462890625, 27067.916015625, 34929.0234375, 33919.375, 27148.6953125, 0.0, 0.0, 0.0, 193.0, 0.0, 1.0, 1.0, 0.0, 0.0, 1.0, 1.0, 256.0, 1.0, 1.608195519764846E9, 2020-12-17 14:43:39.764
108.0, 40314.72265625, 31339.134765625, 29476.048828125, 25070.4765625, 26973.79296875, 34807.23046875, 33802.40625, 27024.845703125, 0.0, 0.0, 0.0, 193.0, 0.0, 1.0, 1.0, 0.0, 0.0, 1.0, 1.0, 256.0, 1.0, 1.608195519764851E9, 2020-12-17 14:43:39.764
109.0, 40234.8359375, 31244.921875, 29387.267578125, 24976.576171875, 26918.294921875, 34722.16015625, 33727.91015625, 26954.212890625, 0.0, 0.0, 0.0, 193.0, 0.0, 1.0, 1.0, 0.0, 0.0, 1.0, 1.0, 256.0, 1.0, 1.608195519764856E9, 2020-12-17 14:43:39.764
110.0, 40306.98828125, 31330.08203125, 29475.625, 25070.87890625, 26985.23828125, 34809.44140625, 33807.21484375, 27042.390625, 0.0, 0.0, 0.0, 193.0, 0.0, 1.0, 1.0, 0.0, 0.0, 1.0, 1.0, 256.0, 1.0, 1.60819551976486E9, 2020-12-17 14:43:39.764
111.0, 40454.109375, 31494.03125, 29632.958984375, 25236.884765625, 27105.310546875, 34961.0546875, 33944.09375, 27184.771484375, 0.0, 0.0, 0.0, 193.0, 0.0, 1.0, 1.0, 0.0, 0.0, 1.0, 1.0, 256.0, 1.0, 1.608195519764865E9, 2020-12-17 14:43:39.764
112.0, 40430.32421875, 31460.302734375, 29597.240234375, 25201.76953125, 27072.87890625, 34930.72265625, 33914.09765625, 27156.384765625, 0.0, 0.0, 0.0, 193.0, 0.0, 1.0, 1.0, 0.0, 0.0, 1.0, 1.0, 256.0, 1.0, 1.608195519764869E9, 2020-12-17 14:43:39.764
113.0, 40320.17578125, 31328.13671875, 29470.572265625, 25070.318359375, 26984.052734375, 34813.01953125, 33809.3359375, 27052.673828125, 0.0, 0.0, 0.0, 193.0, 0.0, 1.0, 1.0, 0.0, 0.0, 1.0, 1.0, 256.0, 1.0, 1.608195519764873E9, 2020-12-17 14:43:39.764
114.0, 40243.15234375, 31234.572265625, 29382.931640625, 24979.369140625, 26925.625, 34729.109375, 33730.859375, 26970.93359375, 0.0, 0.0, 0.0, 193.0, 0.0, 1.0, 1.0, 0.0, 0.0, 1.0, 1.0, 256.0, 1.0, 1.608195519764878E9, 2020-12-17 14:43:39.764
115.0, 40310.54296875, 31313.49609375, 29462.369140625, 25062.25, 26988.3671875, 34802.4921875, 33796.8203125, 27042.501953125, 0.0, 0.0, 0.0, 193.0, 0.0, 1.0, 1.0, 0.0, 0.0, 1.0, 1.0, 256.0, 1.0, 1.608195519764882E9, 2020-12-17 14:43:39.764
116.0, 40443.37890625, 31465.734375, 29613.6015625, 25225.373046875, 27103.478515625, 34949.8125, 33932.60546875, 27188.326171875, 0.0, 0.0, 0.0, 193.0, 0.0, 1.0, 1.0, 0.0, 0.0, 1.0, 1.0, 256.0, 1.0, 1.608195519764887E9, 2020-12-17 14:43:39.764
117.0, 40435.890625, 31450.646484375, 29599.318359375, 25215.8515625, 27094.4921875, 34939.8203125, 33921.453125, 27185.197265625, 0.0, 0.0, 0.0, 193.0, 0.0, 1.0, 1.0, 0.0, 0.0, 1.0, 1.0, 256.0, 1.0, 1.608195519764892E9, 2020-12-17 14:43:39.764
118.0, 40308.80078125, 31306.052734375, 29457.2734375, 25062.65234375, 26979.42578125, 34800.6796875, 33799.92578125, 27061.189453125, 0.0, 0.0, 0.0, 193.0, 0.0, 1.0, 1.0, 0.0, 0.0, 1.0, 1.0, 256.0, 1.0, 1.608195519764896E9, 2020-12-17 14:43:39.764
119.0, 40229.62890625, 31215.283203125, 29368.693359375, 24964.3046875, 26912.259765625, 34713.12890625, 33721.515625, 26976.923828125, 0.0, 0.0, 0.0, 193.0, 0.0, 1.0, 1.0, 0.0, 0.0, 1.0, 1.0, 256.0, 1.0, 1.608195519764901E9, 2020-12-17 14:43:39.764
120.0, 40297.9140625, 31293.55859375, 29446.923828125, 25047.810546875, 26983.71875, 34789.953125, 33786.671875, 27049.96875, 0.0, 0.0, 0.0, 193.0, 0.0, 1.0, 1.0, 0.0, 0.0, 1.0, 1.0, 256.0, 1.0, 1.608195519764905E9, 2020-12-17 14:43:39.764
121.0, 40429.609375, 31440.5, 29590.51171875, 25203.1328125, 27093.30859375, 34931.03515625, 33911.4609375, 27183.474609375, 0.0, 0.0, 0.0, 193.0, 0.0, 1.0, 1.0, 0.0, 0.0, 1.0, 1.0, 256.0, 1.0, 1.608195519824731E9, 2020-12-17 14:43:39.824
122.0, 40416.734375, 31425.92578125, 29575.044921875, 25188.001953125, 27076.8359375, 34913.17578125, 33896.88671875, 27169.05859375, 0.0, 0.0, 0.0, 193.0, 0.0, 1.0, 1.0, 0.0, 0.0, 1.0, 1.0, 256.0, 1.0, 1.608195519824737E9, 2020-12-17 14:43:39.824
123.0, 40318.0546875, 31298.87890625, 29453.361328125, 25063.12109375, 26991.83203125, 34806.984375, 33794.2734375, 27062.171875, 0.0, 0.0, 0.0, 193.0, 0.0, 1.0, 1.0, 0.0, 0.0, 1.0, 1.0, 256.0, 1.0, 1.608195519824746E9, 2020-12-17 14:43:39.824
124.0, 40234.79296875, 31201.224609375, 29358.501953125, 24961.80078125, 26922.65234375, 34708.45703125, 33708.95703125, 26973.279296875, 0.0, 0.0, 0.0, 193.0, 0.0, 1.0, 1.0, 0.0, 0.0, 1.0, 1.0, 256.0, 1.0, 1.608195519824748E9, 2020-12-17 14:43:39.824
125.0, 40287.8984375, 31275.521484375, 29432.306640625, 25035.94140625, 26974.77734375, 34772.00390625, 33770.71484375, 27034.9921875, 0.0, 0.0, 0.0, 193.0, 0.0, 1.0, 1.0, 0.0, 0.0, 1.0, 1.0, 256.0, 1.0, 1.60819551982475E9, 2020-12-17 14:43:39.824
126.0, 40423.75390625, 31431.22265625, 29584.947265625, 25203.177734375, 27100.751953125, 34932.33203125, 33904.0625, 27174.064453125, 0.0, 0.0, 0.0, 193.0, 0.0, 1.0, 1.0, 0.0, 0.0, 1.0, 1.0, 256.0, 1.0, 1.608195519824752E9, 2020-12-17 14:43:39.824
127.0, 40407.01171875, 31413.185546875, 29565.791015625, 25181.943359375, 27080.0546875, 34916.59765625, 33892.1953125, 27167.60546875, 0.0, 0.0, 0.0, 193.0, 0.0, 1.0, 1.0, 0.0, 0.0, 1.0, 1.0, 256.0, 1.0, 1.608195519824755E9, 2020-12-17 14:43:39.824
128.0, 40292.16796875, 31272.390625, 29430.517578125, 25042.87109375, 26979.560546875, 34788.09765625, 33775.1171875, 27046.927734375, 0.0, 0.0, 0.0, 193.0, 0.0, 1.0, 1.0, 0.0, 0.0, 1.0, 1.0, 256.0, 1.0, 1.608195519824757E9, 2020-12-17 14:43:39.824
129.0, 40219.078125, 31179.38671875, 29341.3359375, 24952.7265625, 26928.396484375, 34706.78125, 33699.74609375, 26959.869140625, 0.0, 0.0, 0.0, 193.0, 0.0, 1.0, 1.0, 0.0, 0.0, 1.0, 1.0, 256.0, 1.0, 1.608195519824759E9, 2020-12-17 14:43:39.824
130.0, 40284.0546875, 31266.916015625, 29426.71875, 25039.607421875, 26990.87109375, 34788.96875, 33773.953125, 27033.740234375, 0.0, 0.0, 0.0, 193.0, 0.0, 1.0, 1.0, 0.0, 0.0, 1.0, 1.0, 256.0, 1.0, 1.608195519824761E9, 2020-12-17 14:43:39.824
131.0, 40401.06640625, 31403.88671875, 29560.986328125, 25183.486328125, 27089.46484375, 34920.93359375, 33895.703125, 27164.767578125, 0.0, 0.0, 0.0, 193.0, 0.0, 1.0, 1.0, 0.0, 0.0, 1.0, 1.0, 256.0, 1.0, 1.608195519824763E9, 2020-12-17 14:43:39.824
132.0, 40398.98828125, 31399.86328125, 29556.626953125, 25178.546875, 27082.9375, 34916.91015625, 33893.9140625, 27170.578125, 0.0, 0.0, 0.0, 193.0, 0.0, 1.0, 1.0, 0.0, 0.0, 1.0, 1.0, 256.0, 1.0, 1.608195519824765E9, 2020-12-17 14:43:39.824
133.0, 40295.5234375, 31276.615234375, 29436.44140625, 25054.673828125, 26995.072265625, 34802.71484375, 33787.92578125, 27053.544921875, 0.0, 0.0, 0.0, 193.0, 0.0, 1.0, 1.0, 0.0, 0.0, 1.0, 1.0, 256.0, 1.0, 1.608195519824767E9, 2020-12-17 14:43:39.824
134.0, 40211.2578125, 31178.626953125, 29340.9765625, 24954.9609375, 26933.806640625, 34709.53125, 33704.44140625, 26958.21484375, 0.0, 0.0, 0.0, 193.0, 0.0, 1.0, 1.0, 0.0, 0.0, 1.0, 1.0, 256.0, 1.0, 1.60819551982477E9, 2020-12-17 14:43:39.824
135.0, 40264.65625, 31251.40234375, 29413.62109375, 25028.767578125, 26993.328125, 34775.46875, 33765.640625, 27025.671875, 0.0, 0.0, 0.0, 193.0, 0.0, 1.0, 1.0, 0.0, 0.0, 1.0, 1.0, 256.0, 1.0, 1.608195519824772E9, 2020-12-17 14:43:39.824
136.0, 40392.68359375, 31402.478515625, 29561.701171875, 25187.353515625, 27099.275390625, 34915.48046875, 33896.0625, 27167.650390625, 0.0, 0.0, 0.0, 193.0, 0.0, 1.0, 1.0, 0.0, 0.0, 1.0, 1.0, 256.0, 1.0, 1.608195519884655E9, 2020-12-17 14:43:39.884
137.0, 40400.44140625, 31402.92578125, 29559.689453125, 25186.97265625, 27097.66796875, 34918.921875, 33900.578125, 27169.416015625, 0.0, 0.0, 0.0, 193.0, 0.0, 1.0, 1.0, 0.0, 0.0, 1.0, 1.0, 256.0, 1.0, 1.60819551988466E9, 2020-12-17 14:43:39.884
138.0, 40280.2109375, 31268.658203125, 29428.08203125, 25045.93359375, 26995.498046875, 34788.90234375, 33783.72265625, 27049.23046875, 0.0, 0.0, 0.0, 193.0, 0.0, 1.0, 1.0, 0.0, 0.0, 1.0, 1.0, 256.0, 1.0, 1.608195519884661E9, 2020-12-17 14:43:39.884
139.0, 40181.57421875, 31165.884765625, 29328.70703125, 24938.353515625, 26921.22265625, 34690.48828125, 33693.46484375, 26951.486328125, 0.0, 0.0, 0.0, 193.0, 0.0, 1.0, 1.0, 0.0, 0.0, 1.0, 1.0, 256.0, 1.0, 1.608195519884663E9, 2020-12-17 14:43:39.884
140.0, 40230.8359375, 31224.693359375, 29389.390625, 25003.375, 26973.525390625, 34755.7109375, 33746.4609375, 27007.90234375, 0.0, 0.0, 0.0, 193.0, 0.0, 1.0, 1.0, 0.0, 0.0, 1.0, 1.0, 256.0, 1.0, 1.608195519884664E9, 2020-12-17 14:43:39.884
141.0, 40359.2265625, 31373.578125, 29536.779296875, 25160.6640625, 27083.71875, 34899.1640625, 33879.90234375, 27146.640625, 0.0, 0.0, 0.0, 193.0, 0.0, 1.0, 1.0, 0.0, 0.0, 1.0, 1.0, 256.0, 1.0, 1.608195519884665E9, 2020-12-17 14:43:39.884
142.0, 40367.49609375, 31377.9140625, 29535.99609375, 25161.224609375, 27082.712890625, 34896.30078125, 33880.19140625, 27146.482421875, 0.0, 0.0, 0.0, 193.0, 0.0, 1.0, 1.0, 0.0, 0.0, 1.0, 1.0, 256.0, 1.0, 1.608195519884667E9, 2020-12-17 14:43:39.884
143.0, 40263.671875, 31259.361328125, 29416.771484375, 25032.857421875, 26987.673828125, 34777.390625, 33771.16015625, 27028.935546875, 0.0, 0.0, 0.0, 193.0, 0.0, 1.0, 1.0, 0.0, 0.0, 1.0, 1.0, 256.0, 1.0, 1.608195519884668E9, 2020-12-17 14:43:39.884
144.0, 40185.5078125, 31170.9375, 29331.701171875, 24942.4453125, 26929.828125, 34697.68359375, 33693.28515625, 26947.59765625, 0.0, 0.0, 0.0, 193.0, 0.0, 1.0, 1.0, 0.0, 0.0, 1.0, 1.0, 256.0, 1.0, 1.608195519884669E9, 2020-12-17 14:43:39.884
145.0, 40240.46875, 31238.1484375, 29401.595703125, 25020.2734375, 26996.4140625, 34770.84375, 33757.5703125, 27019.705078125, 0.0, 0.0, 0.0, 193.0, 0.0, 1.0, 1.0, 0.0, 0.0, 1.0, 1.0, 256.0, 1.0, 1.608195519884671E9, 2020-12-17 14:43:39.884
146.0, 40370.33203125, 31385.15625, 29547.171875, 25175.796875, 27104.931640625, 34916.46484375, 33887.703125, 27150.41796875, 0.0, 0.0, 0.0, 193.0, 0.0, 1.0, 1.0, 0.0, 0.0, 1.0, 1.0, 256.0, 1.0, 1.608195519884678E9, 2020-12-17 14:43:39.884
147.0, 40372.703125, 31383.814453125, 29542.58984375, 25168.33203125, 27088.546875, 34909.15625, 33880.28125, 27138.50390625, 0.0, 0.0, 0.0, 193.0, 0.0, 1.0, 1.0, 0.0, 0.0, 1.0, 1.0, 256.0, 1.0, 1.608195519884679E9, 2020-12-17 14:43:39.884
148.0, 40271.11328125, 31265.439453125, 29424.3046875, 25038.37890625, 26996.90625, 34783.2265625, 33773.91015625, 27027.75, 0.0, 0.0, 0.0, 193.0, 0.0, 1.0, 1.0, 0.0, 0.0, 1.0, 1.0, 256.0, 1.0, 1.608195519884681E9, 2020-12-17 14:43:39.884
149.0, 40185.73046875, 31162.421875, 29323.966796875, 24934.95703125, 26931.01171875, 34683.87109375, 33687.18359375, 26939.23828125, 0.0, 0.0, 0.0, 193.0, 0.0, 1.0, 1.0, 0.0, 0.0, 1.0, 1.0, 256.0, 1.0, 1.608195519884682E9, 2020-12-17 14:43:39.884
150.0, 40248.42578125, 31239.4453125, 29401.484375, 25015.087890625, 26997.8671875, 34760.44921875, 33752.85546875, 27012.037109375, 0.0, 0.0, 0.0, 193.0, 0.0, 1.0, 1.0, 0.0, 0.0, 1.0, 1.0, 256.0, 1.0, 1.608195519884683E9, 2020-12-17 14:43:39.884
151.0, 40376.94921875, 31388.84375, 29545.5625, 25166.296875, 27106.630859375, 34900.1484375, 33877.0625, 27154.240234375, 0.0, 0.0, 0.0, 193.0, 0.0, 1.0, 1.0, 0.0, 0.0, 1.0, 1.0, 256.0, 1.0, 1.608195519944481E9, 2020-12-17 14:43:39.944
152.0, 40375.16015625, 31393.537109375, 29544.646484375, 25162.38671875, 27088.2578125, 34892.16796875, 33872.03515625, 27149.857421875, 0.0, 0.0, 0.0, 193.0, 0.0, 1.0, 1.0, 0.0, 0.0, 1.0, 1.0, 256.0, 1.0, 1.608195519944488E9, 2020-12-17 14:43:39.944
153.0, 40278.40234375, 31279.7890625, 29434.630859375, 25046.0234375, 27002.626953125, 34782.0625, 33780.03515625, 27055.400390625, 0.0, 0.0, 0.0, 193.0, 0.0, 1.0, 1.0, 0.0, 0.0, 1.0, 1.0, 256.0, 1.0, 1.60819551994449E9, 2020-12-17 14:43:39.944
154.0, 40187.85546875, 31178.537109375, 29338.1171875, 24942.9375, 26932.890625, 34691.5390625, 33695.5, 26962.70703125, 0.0, 0.0, 0.0, 193.0, 0.0, 1.0, 1.0, 0.0, 0.0, 1.0, 1.0, 256.0, 1.0, 1.608195519944492E9, 2020-12-17 14:43:39.944
155.0, 40229.8515625, 31232.158203125, 29393.4140625, 25001.609375, 26976.564453125, 34746.859375, 33742.99609375, 27004.103515625, 0.0, 0.0, 0.0, 193.0, 0.0, 1.0, 1.0, 0.0, 0.0, 1.0, 1.0, 256.0, 1.0, 1.608195519944495E9, 2020-12-17 14:43:39.944
156.0, 40347.82421875, 31375.880859375, 29533.44921875, 25148.68359375, 27075.8515625, 34883.33984375, 33870.15625, 27142.080078125, 0.0, 0.0, 0.0, 193.0, 0.0, 1.0, 1.0, 0.0, 0.0, 1.0, 1.0, 256.0, 1.0, 1.608195519944497E9, 2020-12-17 14:43:39.944
157.0, 40357.546875, 31380.462890625, 29535.705078125, 25152.685546875, 27073.794921875, 34891.33984375, 33871.02734375, 27154.955078125, 0.0, 0.0, 0.0, 193.0, 0.0, 1.0, 1.0, 0.0, 0.0, 1.0, 1.0, 256.0, 1.0, 1.608195519944499E9, 2020-12-17 14:43:39.944
158.0, 40261.66015625, 31266.333984375, 29422.181640625, 25032.8125, 26994.513671875, 34780.69921875, 33765.34765625, 27051.3984375, 0.0, 0.0, 0.0, 193.0, 0.0, 1.0, 1.0, 0.0, 0.0, 1.0, 1.0, 256.0, 1.0, 1.608195519944501E9, 2020-12-17 14:43:39.944
159.0, 40179.25, 31174.4453125, 29331.8359375, 24935.0234375, 26932.7109375, 34687.15625, 33683.71875, 26970.150390625, 0.0, 0.0, 0.0, 193.0, 0.0, 1.0, 1.0, 0.0, 0.0, 1.0, 1.0, 256.0, 1.0, 1.608195519944504E9, 2020-12-17 14:43:39.944
160.0, 40227.52734375, 31234.326171875, 29392.119140625, 24998.078125, 26972.162109375, 34741.203125, 33738.1015625, 27027.908203125, 0.0, 0.0, 0.0, 193.0, 0.0, 1.0, 1.0, 0.0, 0.0, 1.0, 1.0, 256.0, 1.0, 1.608195519944506E9, 2020-12-17 14:43:39.944
161.0, 40341.03125, 31378.271484375, 29532.888671875, 25145.3984375, 27061.501953125, 34876.41015625, 33870.58203125, 27162.6875, 0.0, 0.0, 0.0, 193.0, 0.0, 1.0, 1.0, 0.0, 0.0, 1.0, 1.0, 256.0, 1.0, 1.608195519944509E9, 2020-12-17 14:43:39.944
162.0, 40363.4921875, 31389.89453125, 29541.583984375, 25160.978515625, 27071.73828125, 34896.48046875, 33886.5625, 27176.904296875, 0.0, 0.0, 0.0, 193.0, 0.0, 1.0, 1.0, 0.0, 0.0, 1.0, 1.0, 256.0, 1.0, 1.608195519944511E9, 2020-12-17 14:43:39.944
163.0, 40278.78125, 31277.041015625, 29428.57421875, 25046.984375, 27008.39453125, 34795.921875, 33785.0625, 27077.52734375, 0.0, 0.0, 0.0, 193.0, 0.0, 1.0, 1.0, 0.0, 0.0, 1.0, 1.0, 256.0, 1.0, 1.608195519944514E9, 2020-12-17 14:43:39.944
164.0, 40194.87109375, 31186.025390625, 29338.876953125, 24949.083984375, 26943.529296875, 34703.5859375, 33701.4453125, 26989.708984375, 0.0, 0.0, 0.0, 193.0, 0.0, 1.0, 1.0, 0.0, 0.0, 1.0, 1.0, 256.0, 1.0, 1.608195519944516E9, 2020-12-17 14:43:39.944
165.0, 40242.21484375, 31246.330078125, 29399.806640625, 25008.76171875, 26987.763671875, 34753.23046875, 33749.58984375, 27034.412109375, 0.0, 0.0, 0.0, 193.0, 0.0, 1.0, 1.0, 0.0, 0.0, 1.0, 1.0, 256.0, 1.0, 1.608195519944518E9, 2020-12-17 14:43:39.944
166.0, 40370.578125, 31392.53125, 29541.986328125, 25159.255859375, 27089.173828125, 34889.41796875, 33873.8671875, 27166.443359375, 0.0, 0.0, 0.0, 193.0, 0.0, 1.0, 1.0, 0.0, 0.0, 1.0, 1.0, 256.0, 1.0, 1.608195520004782E9, 2020-12-17 14:43:40.004
167.0, 40381.95703125, 31403.060546875, 29548.22265625, 25168.15234375, 27086.71484375, 34896.90625, 33878.984375, 27179.18359375, 0.0, 0.0, 0.0, 193.0, 0.0, 1.0, 1.0, 0.0, 0.0, 1.0, 1.0, 256.0, 1.0, 1.608195520004797E9, 2020-12-17 14:43:40.004
168.0, 40279.3828125, 31280.4375, 29426.49609375, 25041.955078125, 26998.08984375, 34776.05078125, 33766.15234375, 27066.955078125, 0.0, 0.0, 0.0, 193.0, 0.0, 1.0, 1.0, 0.0, 0.0, 1.0, 1.0, 256.0, 1.0, 1.608195520004805E9, 2020-12-17 14:43:40.004
169.0, 40195.25390625, 31183.119140625, 29333.958984375, 24945.88671875, 26937.29296875, 34687.44921875, 33685.7109375, 26979.896484375, 0.0, 0.0, 0.0, 193.0, 0.0, 1.0, 1.0, 0.0, 0.0, 1.0, 1.0, 256.0, 1.0, 1.608195520004812E9, 2020-12-17 14:43:40.004
170.0, 40250.26171875, 31251.828125, 29403.94140625, 25017.033203125, 26995.810546875, 34761.85546875, 33750.9765625, 27048.783203125, 0.0, 0.0, 0.0, 193.0, 0.0, 1.0, 1.0, 0.0, 0.0, 1.0, 1.0, 256.0, 1.0, 1.608195520004835E9, 2020-12-17 14:43:40.004
171.0, 40374.9140625, 31398.12109375, 29547.126953125, 25166.07421875, 27102.00390625, 34901.421875, 33881.2890625, 27196.4609375, 0.0, 0.0, 0.0, 193.0, 0.0, 1.0, 1.0, 0.0, 0.0, 1.0, 1.0, 256.0, 1.0, 1.608195520004842E9, 2020-12-17 14:43:40.004
172.0, 40368.87890625, 31392.15234375, 29540.287109375, 25156.57421875, 27082.78125, 34890.22265625, 33874.8515625, 27186.158203125, 0.0, 0.0, 0.0, 193.0, 0.0, 1.0, 1.0, 0.0, 0.0, 1.0, 1.0, 256.0, 1.0, 1.608195520004849E9, 2020-12-17 14:43:40.004
173.0, 40276.8125, 31278.3828125, 29428.328125, 25040.568359375, 27007.25390625, 34785.86328125, 33775.20703125, 27083.8984375, 0.0, 0.0, 0.0, 193.0, 0.0, 1.0, 1.0, 0.0, 0.0, 1.0, 1.0, 256.0, 1.0, 1.608195520004856E9, 2020-12-17 14:43:40.004
174.0, 40185.484375, 31177.798828125, 29327.208984375, 24934.21875, 26943.8203125, 34690.10546875, 33685.1953125, 26993.306640625, 0.0, 0.0, 0.0, 193.0, 0.0, 1.0, 1.0, 0.0, 0.0, 1.0, 1.0, 256.0, 1.0, 1.608195520004863E9, 2020-12-17 14:43:40.004
175.0, 40227.3046875, 31238.08203125, 29387.267578125, 24993.25, 26984.27734375, 34742.23046875, 33737.72265625, 27050.99609375, 0.0, 0.0, 0.0, 193.0, 0.0, 1.0, 1.0, 0.0, 0.0, 1.0, 1.0, 256.0, 1.0, 1.60819552000487E9, 2020-12-17 14:43:40.004
176.0, 40355.60546875, 31386.876953125, 29534.208984375, 25149.154296875, 27089.396484375, 34878.93359375, 33865.953125, 27183.341796875, 0.0, 0.0, 0.0, 193.0, 0.0, 1.0, 1.0, 0.0, 0.0, 1.0, 1.0, 256.0, 1.0, 1.608195520004877E9, 2020-12-17 14:43:40.004
177.0, 40361.23828125, 31386.51953125, 29530.20703125, 25149.578125, 27079.740234375, 34873.1015625, 33853.86328125, 27171.919921875, 0.0, 0.0, 0.0, 193.0, 0.0, 1.0, 1.0, 0.0, 0.0, 1.0, 1.0, 256.0, 1.0, 1.608195520004884E9, 2020-12-17 14:43:40.004
178.0, 40262.015625, 31268.904296875, 29414.201171875, 25026.017578125, 26998.1796875, 34760.71484375, 33755.42578125, 27068.54296875, 0.0, 0.0, 0.0, 193.0, 0.0, 1.0, 1.0, 0.0, 0.0, 1.0, 1.0, 256.0, 1.0, 1.608195520004891E9, 2020-12-17 14:43:40.004
179.0, 40183.76171875, 31177.083984375, 29326.91796875, 24933.99609375, 26948.24609375, 34679.1328125, 33682.46875, 26979.537109375, 0.0, 0.0, 0.0, 193.0, 0.0, 1.0, 1.0, 0.0, 0.0, 1.0, 1.0, 256.0, 1.0, 1.608195520004898E9, 2020-12-17 14:43:40.004
180.0, 40246.28125, 31247.87109375, 29399.78515625, 25013.45703125, 27013.2890625, 34756.0234375, 33745.8125, 27036.712890625, 0.0, 0.0, 0.0, 193.0, 0.0, 1.0, 1.0, 0.0, 0.0, 1.0, 1.0, 256.0, 1.0, 1.608195520004905E9, 2020-12-17 14:43:40.004
181.0, 40379.4296875, 31404.669921875, 29554.525390625, 25178.703125, 27126.947265625, 34912.75390625, 33885.2890625, 27183.296875, 0.0, 0.0, 0.0, 193.0, 0.0, 1.0, 1.0, 0.0, 0.0, 1.0, 1.0, 256.0, 1.0, 1.608195520065109E9, 2020-12-17 14:43:40.065
182.0, 40388.1015625, 31413.677734375, 29563.154296875, 25190.728515625, 27141.029296875, 34933.44921875, 33906.54296875, 27209.828125, 0.0, 0.0, 0.0, 193.0, 0.0, 1.0, 1.0, 0.0, 0.0, 1.0, 1.0, 256.0, 1.0, 1.608195520065124E9, 2020-12-17 14:43:40.065
183.0, 40282.04296875, 31295.4140625, 29446.923828125, 25066.787109375, 27049.455078125, 34821.51171875, 33811.9296875, 27109.669921875, 0.0, 0.0, 0.0, 193.0, 0.0, 1.0, 1.0, 0.0, 0.0, 1.0, 1.0, 256.0, 1.0, 1.608195520065132E9, 2020-12-17 14:43:40.065
184.0, 40190.4453125, 31192.439453125, 29346.990234375, 24960.70703125, 26969.76953125, 34729.4921875, 33734.125, 27041.564453125, 0.0, 0.0, 0.0, 193.0, 0.0, 1.0, 1.0, 0.0, 0.0, 1.0, 1.0, 256.0, 1.0, 1.608195520065139E9, 2020-12-17 14:43:40.065
185.0, 40242.7734375, 31259.203125, 29411.966796875, 25030.623046875, 27011.859375, 34792.0078125, 33790.78515625, 27121.62890625, 0.0, 0.0, 0.0, 193.0, 0.0, 1.0, 1.0, 0.0, 0.0, 1.0, 1.0, 256.0, 1.0, 1.608195520065146E9, 2020-12-17 14:43:40.065
186.0, 40355.9609375, 31400.421875, 29548.177734375, 25172.064453125, 27090.044921875, 34911.8359375, 33903.66015625, 27255.359375, 0.0, 0.0, 0.0, 193.0, 0.0, 1.0, 1.0, 0.0, 0.0, 1.0, 1.0, 256.0, 1.0, 1.608195520065153E9, 2020-12-17 14:43:40.065
187.0, 40353.76953125, 31392.443359375, 29537.62890625, 25158.765625, 27066.083984375, 34893.15234375, 33889.24609375, 27248.205078125, 0.0, 0.0, 0.0, 193.0, 0.0, 1.0, 1.0, 0.0, 0.0, 1.0, 1.0, 256.0, 1.0, 1.60819552006516E9, 2020-12-17 14:43:40.065
188.0, 40241.05078125, 31263.025390625, 29410.06640625, 25016.02734375, 26965.412109375, 34757.4296875, 33774.35546875, 27133.408203125, 0.0, 0.0, 0.0, 193.0, 0.0, 1.0, 1.0, 0.0, 0.0, 1.0, 1.0, 256.0, 1.0, 1.608195520065167E9, 2020-12-17 14:43:40.065
189.0, 40155.0625, 31162.779296875, 29312.724609375, 24912.13671875, 26891.78515625, 34658.6796875, 33679.40625, 27035.171875, 0.0, 0.0, 0.0, 193.0, 0.0, 1.0, 1.0, 0.0, 0.0, 1.0, 1.0, 256.0, 1.0, 1.608195520065174E9, 2020-12-17 14:43:40.065
190.0, 40208.3046875, 31226.525390625, 29374.05859375, 24976.84375, 26941.583984375, 34710.76171875, 33721.76171875, 27088.2578125, 0.0, 0.0, 0.0, 193.0, 0.0, 1.0, 1.0, 0.0, 0.0, 1.0, 1.0, 256.0, 1.0, 1.608195520065181E9, 2020-12-17 14:43:40.065
191.0, 40341.7890625, 31383.32421875, 29526.453125, 25137.306640625, 27054.439453125, 34854.078125, 33852.33984375, 27219.685546875, 0.0, 0.0, 0.0, 193.0, 0.0, 1.0, 1.0, 0.0, 0.0, 1.0, 1.0, 256.0, 1.0, 1.608195520065188E9, 2020-12-17 14:43:40.065
192.0, 40362.2421875, 31394.365234375, 29534.833984375, 25148.751953125, 27064.453125, 34870.375, 33860.96875, 27224.22265625, 0.0, 0.0, 0.0, 193.0, 0.0, 1.0, 1.0, 0.0, 0.0, 1.0, 1.0, 256.0, 1.0, 1.608195520065195E9, 2020-12-17 14:43:40.065
193.0, 40262.8671875, 31272.50390625, 29416.638671875, 25025.99609375, 26986.84765625, 34763.0625, 33764.7890625, 27117.671875, 0.0, 0.0, 0.0, 193.0, 0.0, 1.0, 1.0, 0.0, 0.0, 1.0, 1.0, 256.0, 1.0, 1.608195520065218E9, 2020-12-17 14:43:40.065
194.0, 40179.58203125, 31180.50390625, 29328.9296875, 24930.30859375, 26931.2578125, 34679.2890625, 33690.6484375, 27028.779296875, 0.0, 0.0, 0.0, 193.0, 0.0, 1.0, 1.0, 0.0, 0.0, 1.0, 1.0, 256.0, 1.0, 1.608195520065225E9, 2020-12-17 14:43:40.065
195.0, 40222.85546875, 31237.880859375, 29387.044921875, 24992.021484375, 26983.181640625, 34737.4921875, 33734.45703125, 27072.611328125, 0.0, 0.0, 0.0, 193.0, 0.0, 1.0, 1.0, 0.0, 0.0, 1.0, 1.0, 256.0, 1.0, 1.608195520065232E9, 2020-12-17 14:43:40.065
196.0, 40349.390625, 31385.849609375, 29529.357421875, 25143.1640625, 27084.681640625, 34878.46484375, 33855.94140625, 27208.486328125, 0.0, 0.0, 0.0, 193.0, 0.0, 1.0, 1.0, 0.0, 0.0, 1.0, 1.0, 256.0, 1.0, 1.608195520125506E9, 2020-12-17 14:43:40.125
197.0, 40356.49609375, 31393.001953125, 29534.54296875, 25149.244140625, 27083.4296875, 34885.953125, 33864.8828125, 27223.396484375, 0.0, 0.0, 0.0, 193.0, 0.0, 1.0, 1.0, 0.0, 0.0, 1.0, 1.0, 256.0, 1.0, 1.60819552012551E9, 2020-12-17 14:43:40.125
198.0, 40260.23046875, 31276.37109375, 29420.28125, 25032.6796875, 27002.896484375, 34774.53125, 33768.703125, 27119.90625, 0.0, 0.0, 0.0, 193.0, 0.0, 1.0, 1.0, 0.0, 0.0, 1.0, 1.0, 256.0, 1.0, 1.608195520125512E9, 2020-12-17 14:43:40.125
199.0, 40175.6484375, 31176.0546875, 29321.46484375, 24927.982421875, 26933.091796875, 34674.88671875, 33679.36328125, 27024.3984375, 0.0, 0.0, 0.0, 193.0, 0.0, 1.0, 1.0, 0.0, 0.0, 1.0, 1.0, 256.0, 1.0, 1.608195520125513E9, 2020-12-17 14:43:40.125
200.0, 40225.5625, 31237.27734375, 29383.154296875, 24993.294921875, 26983.76171875, 34731.92578125, 33726.96875, 27076.208984375, 0.0, 0.0, 0.0, 193.0, 0.0, 1.0, 1.0, 0.0, 0.0, 1.0, 1.0, 256.0, 1.0, 1.608195520125515E9, 2020-12-17 14:43:40.125
201.0, 40358.10546875, 31397.001953125, 29540.646484375, 25160.642578125, 27092.75, 34883.26953125, 33863.6953125, 27222.591796875, 0.0, 0.0, 0.0, 193.0, 0.0, 1.0, 1.0, 0.0, 0.0, 1.0, 1.0, 256.0, 1.0, 1.608195520125516E9, 2020-12-17 14:43:40.125
202.0, 40370.890625, 31407.57421875, 29548.3125, 25172.35546875, 27095.990234375, 34898.0, 33876.30078125, 27232.560546875, 0.0, 0.0, 0.0, 193.0, 0.0, 1.0, 1.0, 0.0, 0.0, 1.0, 1.0, 256.0, 1.0, 1.608195520125517E9, 2020-12-17 14:43:40.125
203.0, 40270.17578125, 31286.49609375, 29428.619140625, 25045.666015625, 27015.078125, 34782.17578125, 33771.7421875, 27121.2265625, 0.0, 0.0, 0.0, 193.0, 0.0, 1.0, 1.0, 0.0, 0.0, 1.0, 1.0, 256.0, 1.0, 1.608195520125519E9, 2020-12-17 14:43:40.125
204.0, 40187.98828125, 31191.09765625, 29337.53515625, 24947.2734375, 26953.162109375, 34701.484375, 33697.8671875, 27045.1171875, 0.0, 0.0, 0.0, 193.0, 0.0, 1.0, 1.0, 0.0, 0.0, 1.0, 1.0, 256.0, 1.0, 1.60819552012552E9, 2020-12-17 14:43:40.125
205.0, 40232.19921875, 31247.8046875, 29396.25390625, 25008.13671875, 27000.458984375, 34760.24609375, 33746.23828125, 27093.419921875, 0.0, 0.0, 0.0, 193.0, 0.0, 1.0, 1.0, 0.0, 0.0, 1.0, 1.0, 256.0, 1.0, 1.608195520125522E9, 2020-12-17 14:43:40.125
206.0, 40366.98046875, 31401.65234375, 29545.33984375, 25167.861328125, 27116.375, 34903.609375, 33870.6484375, 27226.16796875, 0.0, 0.0, 0.0, 193.0, 0.0, 1.0, 1.0, 0.0, 0.0, 1.0, 1.0, 256.0, 1.0, 1.608195520125523E9, 2020-12-17 14:43:40.125
207.0, 40385.80078125, 31414.90625, 29554.458984375, 25177.630859375, 27121.671875, 34908.70703125, 33877.5546875, 27239.689453125, 0.0, 0.0, 0.0, 193.0, 0.0, 1.0, 1.0, 0.0, 0.0, 1.0, 1.0, 256.0, 1.0, 1.608195520125525E9, 2020-12-17 14:43:40.125
208.0, 40277.88671875, 31288.328125, 29430.451171875, 25044.546875, 27023.212890625, 34785.3046875, 33772.56640625, 27133.18359375, 0.0, 0.0, 0.0, 193.0, 0.0, 1.0, 1.0, 0.0, 0.0, 1.0, 1.0, 256.0, 1.0, 1.608195520125526E9, 2020-12-17 14:43:40.125
209.0, 40193.0390625, 31194.02734375, 29339.748046875, 24948.099609375, 26955.77734375, 34692.09765625, 33694.3828125, 27047.375, 0.0, 0.0, 0.0, 193.0, 0.0, 1.0, 1.0, 0.0, 0.0, 1.0, 1.0, 256.0, 1.0, 1.608195520125527E9, 2020-12-17 14:43:40.125
210.0, 40233.765625, 31247.693359375, 29393.458984375, 25004.046875, 26995.05078125, 34745.47265625, 33739.35546875, 27103.791015625, 0.0, 0.0, 0.0, 193.0, 0.0, 1.0, 1.0, 0.0, 0.0, 1.0, 1.0, 256.0, 1.0, 1.608195520125529E9, 2020-12-17 14:43:40.125
211.0, 40355.58203125, 31390.765625, 29532.755859375, 25148.125, 27095.07421875, 34880.1875, 33856.25390625, 27227.306640625, 0.0, 0.0, 0.0, 193.0, 0.0, 1.0, 1.0, 0.0, 0.0, 1.0, 1.0, 256.0, 1.0, 1.608195520184806E9, 2020-12-17 14:43:40.184
212.0, 40380.7265625, 31411.822265625, 29552.4921875, 25171.39453125, 27110.02734375, 34899.921875, 33874.11328125, 27242.037109375, 0.0, 0.0, 0.0, 193.0, 0.0, 1.0, 1.0, 0.0, 0.0, 1.0, 1.0, 256.0, 1.0, 1.608195520184812E9, 2020-12-17 14:43:40.184
213.0, 40271.31640625, 31285.1328125, 29427.166015625, 25040.501953125, 27018.876953125, 34779.984375, 33770.265625, 27135.978515625, 0.0, 0.0, 0.0, 193.0, 0.0, 1.0, 1.0, 0.0, 0.0, 1.0, 1.0, 256.0, 1.0, 1.608195520184815E9, 2020-12-17 14:43:40.184
214.0, 40189.26171875, 31190.494140625, 29335.634765625, 24943.986328125, 26960.583984375, 34697.52734375, 33695.7890625, 27054.283203125, 0.0, 0.0, 0.0, 193.0, 0.0, 1.0, 1.0, 0.0, 0.0, 1.0, 1.0, 256.0, 1.0, 1.608195520184818E9, 2020-12-17 14:43:40.184
215.0, 40235.0625, 31249.681640625, 29396.923828125, 25010.05859375, 27011.814453125, 34760.0, 33744.80859375, 27103.255859375, 0.0, 0.0, 0.0, 193.0, 0.0, 1.0, 1.0, 0.0, 0.0, 1.0, 1.0, 256.0, 1.0, 1.60819552018482E9, 2020-12-17 14:43:40.184
216.0, 40353.0546875, 31393.939453125, 29537.716796875, 25157.22265625, 27104.6640625, 34890.84765625, 33862.2421875, 27231.28515625, 0.0, 0.0, 0.0, 193.0, 0.0, 1.0, 1.0, 0.0, 0.0, 1.0, 1.0, 256.0, 1.0, 1.60819552018483E9, 2020-12-17 14:43:40.184
217.0, 40380.30078125, 31420.5390625, 29559.578125, 25179.171875, 27115.1015625, 34909.578125, 33881.33203125, 27254.44140625, 0.0, 0.0, 0.0, 193.0, 0.0, 1.0, 1.0, 0.0, 0.0, 1.0, 1.0, 256.0, 1.0, 1.608195520184833E9, 2020-12-17 14:43:40.184
218.0, 40284.8828125, 31304.599609375, 29445.3828125, 25060.908203125, 27035.8203125, 34802.73828125, 33783.7421875, 27148.40625, 0.0, 0.0, 0.0, 193.0, 0.0, 1.0, 1.0, 0.0, 0.0, 1.0, 1.0, 256.0, 1.0, 1.608195520184835E9, 2020-12-17 14:43:40.184
219.0, 40185.5078125, 31188.55078125, 29336.283203125, 24948.994140625, 26968.474609375, 34702.40234375, 33694.3359375, 27057.03125, 0.0, 0.0, 0.0, 193.0, 0.0, 1.0, 1.0, 0.0, 0.0, 1.0, 1.0, 256.0, 1.0, 1.608195520184838E9, 2020-12-17 14:43:40.184
220.0, 40224.17578125, 31240.025390625, 29388.654296875, 25004.248046875, 27015.30078125, 34754.7265625, 33737.07421875, 27103.076171875, 0.0, 0.0, 0.0, 193.0, 0.0, 1.0, 1.0, 0.0, 0.0, 1.0, 1.0, 256.0, 1.0, 1.608195520184841E9, 2020-12-17 14:43:40.184
221.0, 40351.78125, 31388.978515625, 29532.330078125, 25157.646484375, 27117.08984375, 34892.48046875, 33859.3359375, 27232.314453125, 0.0, 0.0, 0.0, 193.0, 0.0, 1.0, 1.0, 0.0, 0.0, 1.0, 1.0, 256.0, 1.0, 1.608195520184843E9, 2020-12-17 14:43:40.184
222.0, 40369.39453125, 31405.2734375, 29543.796875, 25169.716796875, 27122.58984375, 34902.44921875, 33871.36328125, 27249.501953125, 0.0, 0.0, 0.0, 193.0, 0.0, 1.0, 1.0, 0.0, 0.0, 1.0, 1.0, 256.0, 1.0, 1.608195520184846E9, 2020-12-17 14:43:40.184
223.0, 40270.3984375, 31291.591796875, 29432.642578125, 25050.134765625, 27035.39453125, 34794.9609375, 33777.46484375, 27150.05859375, 0.0, 0.0, 0.0, 193.0, 0.0, 1.0, 1.0, 0.0, 0.0, 1.0, 1.0, 256.0, 1.0, 1.608195520184848E9, 2020-12-17 14:43:40.184
224.0, 40194.08984375, 31197.423828125, 29342.83203125, 24954.9609375, 26981.548828125, 34713.2421875, 33703.234375, 27065.927734375, 0.0, 0.0, 0.0, 193.0, 0.0, 1.0, 1.0, 0.0, 0.0, 1.0, 1.0, 256.0, 1.0, 1.608195520184851E9, 2020-12-17 14:43:40.184
225.0, 40229.18359375, 31250.0625, 29394.77734375, 25007.64453125, 27019.078125, 34757.65234375, 33746.640625, 27106.919921875, 0.0, 0.0, 0.0, 193.0, 0.0, 1.0, 1.0, 0.0, 0.0, 1.0, 1.0, 256.0, 1.0, 1.608195520184854E9, 2020-12-17 14:43:40.184
226.0, 40366.82421875, 31408.423828125, 29550.525390625, 25174.142578125, 27131.1953125, 34907.74609375, 33879.43359375, 27253.927734375, 0.0, 0.0, 0.0, 193.0, 0.0, 1.0, 1.0, 0.0, 0.0, 1.0, 1.0, 256.0, 1.0, 1.608195520244424E9, 2020-12-17 14:43:40.244
227.0, 40384.9296875, 31423.623046875, 29561.96875, 25186.50390625, 27135.44140625, 34917.55859375, 33890.609375, 27274.3359375, 0.0, 0.0, 0.0, 193.0, 0.0, 1.0, 1.0, 0.0, 0.0, 1.0, 1.0, 256.0, 1.0, 1.60819552024443E9, 2020-12-17 14:43:40.244
228.0, 40287.3203125, 31310.791015625, 29450.45703125, 25067.212890625, 27051.935546875, 34809.01953125, 33797.17578125, 27176.0546875, 0.0, 0.0, 0.0, 193.0, 0.0, 1.0, 1.0, 0.0, 0.0, 1.0, 1.0, 256.0, 1.0, 1.608195520244432E9, 2020-12-17 14:43:40.244
229.0, 40201.109375, 31205.873046875, 29348.353515625, 24961.33203125, 26988.92578125, 34716.21484375, 33709.625, 27079.048828125, 0.0, 0.0, 0.0, 193.0, 0.0, 1.0, 1.0, 0.0, 0.0, 1.0, 1.0, 256.0, 1.0, 1.608195520244434E9, 2020-12-17 14:43:40.244
230.0, 40239.41796875, 31255.873046875, 29396.09765625, 25010.05859375, 27022.564453125, 34754.7265625, 33741.58984375, 27107.189453125, 0.0, 0.0, 0.0, 193.0, 0.0, 1.0, 1.0, 0.0, 0.0, 1.0, 1.0, 256.0, 1.0, 1.608195520244436E9, 2020-12-17 14:43:40.244
231.0, 40350.73046875, 31391.146484375, 29529.357421875, 25151.92578125, 27115.369140625, 34881.99609375, 33853.19140625, 27227.8203125, 0.0, 0.0, 0.0, 193.0, 0.0, 1.0, 1.0, 0.0, 0.0, 1.0, 1.0, 256.0, 1.0, 1.608195520244439E9, 2020-12-17 14:43:40.244
232.0, 40373.39453125, 31413.3203125, 29549.810546875, 25173.96484375, 27122.455078125, 34904.9296875, 33874.91796875, 27257.9296875, 0.0, 0.0, 0.0, 193.0, 0.0, 1.0, 1.0, 0.0, 0.0, 1.0, 1.0, 256.0, 1.0, 1.608195520244441E9, 2020-12-17 14:43:40.244
233.0, 40287.65625, 31308.958984375, 29448.490234375, 25065.37890625, 27055.244140625, 34810.11328125, 33791.41015625, 27171.248046875, 0.0, 0.0, 0.0, 193.0, 0.0, 1.0, 1.0, 0.0, 0.0, 1.0, 1.0, 256.0, 1.0, 1.608195520244443E9, 2020-12-17 14:43:40.244
234.0, 40201.82421875, 31210.119140625, 29351.638671875, 24964.23828125, 26997.53125, 34720.50390625, 33707.63671875, 27078.556640625, 0.0, 0.0, 0.0, 193.0, 0.0, 1.0, 1.0, 0.0, 0.0, 1.0, 1.0, 256.0, 1.0, 1.608195520244445E9, 2020-12-17 14:43:40.244
235.0, 40246.90625, 31261.818359375, 29402.33203125, 25019.291015625, 27040.3125, 34770.73046875, 33750.484375, 27123.640625, 0.0, 0.0, 0.0, 193.0, 0.0, 1.0, 1.0, 0.0, 0.0, 1.0, 1.0, 256.0, 1.0, 1.608195520244447E9, 2020-12-17 14:43:40.244
236.0, 40361.23828125, 31398.34375, 29534.833984375, 25161.89453125, 27128.736328125, 34896.4140625, 33858.82421875, 27241.76953125, 0.0, 0.0, 0.0, 193.0, 0.0, 1.0, 1.0, 0.0, 0.0, 1.0, 1.0, 256.0, 1.0, 1.608195520244449E9, 2020-12-17 14:43:40.244
237.0, 40380.79296875, 31419.466796875, 29554.34765625, 25184.134765625, 27140.984375, 34917.42578125, 33880.08203125, 27268.099609375, 0.0, 0.0, 0.0, 193.0, 0.0, 1.0, 1.0, 0.0, 0.0, 1.0, 1.0, 256.0, 1.0, 1.608195520244451E9, 2020-12-17 14:43:40.244
238.0, 40297.421875, 31317.318359375, 29455.708984375, 25080.400390625, 27081.171875, 34832.0859375, 33800.0625, 27174.35546875, 0.0, 0.0, 0.0, 193.0, 0.0, 1.0, 1.0, 0.0, 0.0, 1.0, 1.0, 256.0, 1.0, 1.608195520244454E9, 2020-12-17 14:43:40.244
239.0, 40223.21484375, 31229.41015625, 29373.6328125, 24996.423828125, 27038.658203125, 34764.4921875, 33733.87890625, 27097.66796875, 0.0, 0.0, 0.0, 193.0, 0.0, 1.0, 1.0, 0.0, 0.0, 1.0, 1.0, 256.0, 1.0, 1.608195520244463E9, 2020-12-17 14:43:40.244
240.0, 40255.35546875, 31270.73828125, 29416.146484375, 25042.06640625, 27069.482421875, 34800.79296875, 33769.73046875, 27143.30859375, 0.0, 0.0, 0.0, 193.0, 0.0, 1.0, 1.0, 0.0, 0.0, 1.0, 1.0, 256.0, 1.0, 1.608195520244465E9, 2020-12-17 14:43:40.244
241.0, 40362.82421875, 31401.09375, 29540.421875, 25171.83984375, 27141.833984375, 34908.23828125, 33872.30078125, 27262.109375, 0.0, 0.0, 0.0, 193.0, 0.0, 1.0, 1.0, 0.0, 0.0, 1.0, 1.0, 256.0, 1.0, 1.608195520304726E9, 2020-12-17 14:43:40.304
242.0, 40385.17578125, 31426.060546875, 29559.533203125, 25187.3984375, 27143.935546875, 34914.96484375, 33881.578125, 27275.251953125, 0.0, 0.0, 0.0, 193.0, 0.0, 1.0, 1.0, 0.0, 0.0, 1.0, 1.0, 256.0, 1.0, 1.608195520304732E9, 2020-12-17 14:43:40.304
243.0, 40299.58984375, 31321.431640625, 29454.724609375, 25070.005859375, 27067.759765625, 34810.1796875, 33794.47265625, 27182.15625, 0.0, 0.0, 0.0, 193.0, 0.0, 1.0, 1.0, 0.0, 0.0, 1.0, 1.0, 256.0, 1.0, 1.608195520304734E9, 2020-12-17 14:43:40.304
244.0, 40210.33984375, 31220.490234375, 29355.4609375, 24961.82421875, 26996.525390625, 34712.21484375, 33707.703125, 27093.173828125, 0.0, 0.0, 0.0, 193.0, 0.0, 1.0, 1.0, 0.0, 0.0, 1.0, 1.0, 256.0, 1.0, 1.608195520304736E9, 2020-12-17 14:43:40.304
245.0, 40232.625, 31255.158203125, 29391.4921875, 24999.509765625, 27017.201171875, 34741.875, 33734.01171875, 27122.72265625, 0.0, 0.0, 0.0, 193.0, 0.0, 1.0, 1.0, 0.0, 0.0, 1.0, 1.0, 256.0, 1.0, 1.608195520304738E9, 2020-12-17 14:43:40.304
246.0, 40347.78125, 31392.33203125, 29523.76953125, 25142.224609375, 27111.01171875, 34874.734375, 33845.5234375, 27243.35546875, 0.0, 0.0, 0.0, 193.0, 0.0, 1.0, 1.0, 0.0, 0.0, 1.0, 1.0, 256.0, 1.0, 1.608195520304741E9, 2020-12-17 14:43:40.304
247.0, 40375.05078125, 31418.794921875, 29546.255859375, 25169.5390625, 27125.0703125, 34902.31640625, 33865.3515625, 27267.65234375, 0.0, 0.0, 0.0, 193.0, 0.0, 1.0, 1.0, 0.0, 0.0, 1.0, 1.0, 256.0, 1.0, 1.608195520304743E9, 2020-12-17 14:43:40.304
248.0, 40289.375, 31312.625, 29443.05859375, 25064.44140625, 27055.802734375, 34810.875, 33779.8984375, 27176.6796875, 0.0, 0.0, 0.0, 193.0, 0.0, 1.0, 1.0, 0.0, 0.0, 1.0, 1.0, 256.0, 1.0, 1.608195520304745E9, 2020-12-17 14:43:40.304
249.0, 40200.90625, 31217.65234375, 29352.15234375, 24964.23828125, 26989.57421875, 34719.54296875, 33705.17578125, 27096.884765625, 0.0, 0.0, 0.0, 193.0, 0.0, 1.0, 1.0, 0.0, 0.0, 1.0, 1.0, 256.0, 1.0, 1.608195520304747E9, 2020-12-17 14:43:40.304
250.0, 40239.53125, 31267.921875, 29402.82421875, 25014.841796875, 27024.912109375, 34761.65625, 33744.828125, 27144.8515625, 0.0, 0.0, 0.0, 193.0, 0.0, 1.0, 1.0, 0.0, 0.0, 1.0, 1.0, 256.0, 1.0, 1.608195520304749E9, 2020-12-17 14:43:40.304
251.0, 40341.140625, 31392.845703125, 29523.0546875, 25142.224609375, 27095.990234375, 34874.0625, 33845.390625, 27260.767578125, 0.0, 0.0, 0.0, 193.0, 0.0, 1.0, 1.0, 0.0, 0.0, 1.0, 1.0, 256.0, 1.0, 1.608195520304751E9, 2020-12-17 14:43:40.304
252.0, 40364.38671875, 31413.275390625, 29539.728515625, 25163.458984375, 27110.36328125, 34894.78125, 33860.5, 27277.95703125, 0.0, 0.0, 0.0, 193.0, 0.0, 1.0, 1.0, 0.0, 0.0, 1.0, 1.0, 256.0, 1.0, 1.608195520304753E9, 2020-12-17 14:43:40.304
253.0, 40288.99609375, 31321.4765625, 29451.060546875, 25068.8671875, 27055.7578125, 34809.21875, 33788.7734375, 27200.798828125, 0.0, 0.0, 0.0, 193.0, 0.0, 1.0, 1.0, 0.0, 0.0, 1.0, 1.0, 256.0, 1.0, 1.608195520304755E9, 2020-12-17 14:43:40.304
254.0, 40209.82421875, 31231.5546875, 29366.078125, 24976.978515625, 27001.041015625, 34726.6953125, 33718.72265625, 27122.03125, 0.0, 0.0, 0.0, 193.0, 0.0, 1.0, 1.0, 0.0, 0.0, 1.0, 1.0, 256.0, 1.0, 1.608195520304758E9, 2020-12-17 14:43:40.304
255.0, 40228.51171875, 31255.8515625, 29392.185546875, 25004.873046875, 27015.748046875, 34749.98828125, 33740.6484375, 27143.421875, 0.0, 0.0, 0.0, 193.0, 0.0, 1.0, 1.0, 0.0, 0.0, 1.0, 1.0, 256.0, 1.0, 1.60819552030476E9, 2020-12-17 14:43:40.304
0.0, 40323.39453125, 31376.685546875, 29507.36328125, 25124.87890625, 27088.501953125, 34856.1796875, 33829.41015625, 27244.71875, 0.0, 0.0, 0.0, 193.0, 0.0, 1.0, 1.0, 0.0, 0.0, 1.0, 1.0, 256.0, 1.0, 1.608195520365027E9, 2020-12-17 14:43:40.365
1.0, 40354.84375, 31408.201171875, 29537.359375, 25158.765625, 27109.333984375, 34891.8984375, 33860.61328125, 27283.947265625, 0.0, 0.0, 0.0, 193.0, 0.0, 1.0, 1.0, 0.0, 0.0, 1.0, 1.0, 256.0, 1.0, 1.608195520365036E9, 2020-12-17 14:43:40.365
2.0, 40286.515625, 31319.1953125, 29448.2890625, 25064.75390625, 27051.98046875, 34804.32421875, 33787.5234375, 27202.765625, 0.0, 0.0, 0.0, 193.0, 0.0, 1.0, 1.0, 0.0, 0.0, 1.0, 1.0, 256.0, 1.0, 1.608195520365038E9, 2020-12-17 14:43:40.365
3.0, 40208.73046875, 31226.2578125, 29356.98046875, 24966.94140625, 26998.984375, 34715.65625, 33708.23828125, 27119.548828125, 0.0, 0.0, 0.0, 193.0, 0.0, 1.0, 1.0, 0.0, 0.0, 1.0, 1.0, 256.0, 1.0, 1.60819552036504E9, 2020-12-17 14:43:40.365
4.0, 40233.69921875, 31266.22265625, 29399.2265625, 25009.65625, 27027.4375, 34757.2734375, 33746.39453125, 27161.369140625, 0.0, 0.0, 0.0, 193.0, 0.0, 1.0, 1.0, 0.0, 0.0, 1.0, 1.0, 256.0, 1.0, 1.608195520365042E9, 2020-12-17 14:43:40.365
5.0, 40341.12109375, 31391.728515625, 29519.5234375, 25136.904296875, 27104.060546875, 34867.24609375, 33843.421875, 27267.5859375, 0.0, 0.0, 0.0, 193.0, 0.0, 1.0, 1.0, 0.0, 0.0, 1.0, 1.0, 256.0, 1.0, 1.608195520365044E9, 2020-12-17 14:43:40.365
6.0, 40354.015625, 31406.48046875, 29531.34765625, 25150.896484375, 27102.40625, 34879.359375, 33854.80078125, 27282.896484375, 0.0, 0.0, 0.0, 193.0, 0.0, 1.0, 1.0, 0.0, 0.0, 1.0, 1.0, 256.0, 1.0, 1.608195520365046E9, 2020-12-17 14:43:40.365
7.0, 40271.3828125, 31308.6015625, 29434.921875, 25048.97265625, 27038.12109375, 34788.74609375, 33774.84765625, 27201.40234375, 0.0, 0.0, 0.0, 193.0, 0.0, 1.0, 1.0, 0.0, 0.0, 1.0, 1.0, 256.0, 1.0, 1.608195520365061E9, 2020-12-17 14:43:40.365
8.0, 40206.7421875, 31225.20703125, 29357.875, 24968.708984375, 27000.705078125, 34719.3203125, 33715.16796875, 27139.017578125, 0.0, 0.0, 0.0, 193.0, 0.0, 1.0, 1.0, 0.0, 0.0, 1.0, 1.0, 256.0, 1.0, 1.608195520365064E9, 2020-12-17 14:43:40.365
9.0, 40226.2109375, 31255.873046875, 29390.150390625, 24999.666015625, 27019.66015625, 34745.71875, 33737.83203125, 27171.361328125, 0.0, 0.0, 0.0, 193.0, 0.0, 1.0, 1.0, 0.0, 0.0, 1.0, 1.0, 256.0, 1.0, 1.608195520365067E9, 2020-12-17 14:43:40.365
10.0, 40320.2890625, 31371.142578125, 29500.501953125, 25116.2734375, 27078.130859375, 34845.20703125, 33826.03515625, 27265.73046875, 0.0, 0.0, 0.0, 193.0, 0.0, 1.0, 1.0, 0.0, 0.0, 1.0, 1.0, 256.0, 1.0, 1.60819552036507E9, 2020-12-17 14:43:40.365
11.0, 40343.15234375, 31393.203125, 29518.451171875, 25138.849609375, 27087.83203125, 34865.9921875, 33841.27734375, 27281.3984375, 0.0, 0.0, 0.0, 193.0, 0.0, 1.0, 1.0, 0.0, 0.0, 1.0, 1.0, 256.0, 1.0, 1.608195520365072E9, 2020-12-17 14:43:40.365
12.0, 40272.90234375, 31311.8203125, 29441.046875, 25054.94140625, 27041.5859375, 34798.08984375, 33783.609375, 27213.873046875, 0.0, 0.0, 0.0, 193.0, 0.0, 1.0, 1.0, 0.0, 0.0, 1.0, 1.0, 256.0, 1.0, 1.608195520365075E9, 2020-12-17 14:43:40.365
13.0, 40200.39453125, 31225.876953125, 29359.595703125, 24970.2734375, 26993.28515625, 34721.6015625, 33714.23046875, 27135.10546875, 0.0, 0.0, 0.0, 193.0, 0.0, 1.0, 1.0, 0.0, 0.0, 1.0, 1.0, 256.0, 1.0, 1.608195520365078E9, 2020-12-17 14:43:40.365
14.0, 40223.4609375, 31259.740234375, 29393.458984375, 25008.359375, 27018.83203125, 34752.1796875, 33735.53125, 27154.84375, 0.0, 0.0, 0.0, 193.0, 0.0, 1.0, 1.0, 0.0, 0.0, 1.0, 1.0, 256.0, 1.0, 1.608195520365081E9, 2020-12-17 14:43:40.365
15.0, 40318.41015625, 31370.626953125, 29499.228515625, 25119.44921875, 27093.443359375, 34852.828125, 33828.0234375, 27266.623046875, 0.0, 0.0, 0.0, 193.0, 0.0, 1.0, 1.0, 0.0, 0.0, 1.0, 1.0, 256.0, 1.0, 1.608195520425348E9, 2020-12-17 14:43:40.425
16.0, 40342.05859375, 31389.9609375, 29515.87890625, 25135.05078125, 27096.03515625, 34864.60546875, 33843.7578125, 27287.8125, 0.0, 0.0, 0.0, 193.0, 0.0, 1.0, 1.0, 0.0, 0.0, 1.0, 1.0, 256.0, 1.0, 1.608195520425354E9, 2020-12-17 14:43:40.425
17.0, 40272.27734375, 31304.82421875, 29431.279296875, 25045.306640625, 27042.390625, 34786.77734375, 33775.02734375, 27213.3828125, 0.0, 0.0, 0.0, 193.0, 0.0, 1.0, 1.0, 0.0, 0.0, 1.0, 1.0, 256.0, 1.0, 1.608195520425356E9, 2020-12-17 14:43:40.425
18.0, 40203.61328125, 31221.09375, 29350.1640625, 24960.125, 27000.50390625, 34712.390625, 33709.04296875, 27145.275390625, 0.0, 0.0, 0.0, 193.0, 0.0, 1.0, 1.0, 0.0, 0.0, 1.0, 1.0, 256.0, 1.0, 1.608195520425358E9, 2020-12-17 14:43:40.425
19.0, 40226.1640625, 31251.08984375, 29382.529296875, 24995.91015625, 27025.248046875, 34743.57421875, 33735.33203125, 27174.310546875, 0.0, 0.0, 0.0, 193.0, 0.0, 1.0, 1.0, 0.0, 0.0, 1.0, 1.0, 256.0, 1.0, 1.60819552042536E9, 2020-12-17 14:43:40.425
20.0, 40320.04296875, 31360.2109375, 29488.833984375, 25113.212890625, 27091.87890625, 34848.46875, 33821.49609375, 27269.640625, 0.0, 0.0, 0.0, 193.0, 0.0, 1.0, 1.0, 0.0, 0.0, 1.0, 1.0, 256.0, 1.0, 1.608195520425362E9, 2020-12-17 14:43:40.425
21.0, 40339.80078125, 31387.90625, 29512.68359375, 25137.5078125, 27103.09765625, 34872.54296875, 33846.46484375, 27298.474609375, 0.0, 0.0, 0.0, 193.0, 0.0, 1.0, 1.0, 0.0, 0.0, 1.0, 1.0, 256.0, 1.0, 1.608195520425365E9, 2020-12-17 14:43:40.425
22.0, 40266.48828125, 31301.58203125, 29429.06640625, 25047.498046875, 27042.681640625, 34792.07421875, 33776.90625, 27221.49609375, 0.0, 0.0, 0.0, 193.0, 0.0, 1.0, 1.0, 0.0, 0.0, 1.0, 1.0, 256.0, 1.0, 1.608195520425367E9, 2020-12-17 14:43:40.425
23.0, 40192.4375, 31217.2265625, 29345.40234375, 24955.87890625, 26990.244140625, 34707.18359375, 33702.5390625, 27138.615234375, 0.0, 0.0, 0.0, 193.0, 0.0, 1.0, 1.0, 0.0, 0.0, 1.0, 1.0, 256.0, 1.0, 1.608195520425369E9, 2020-12-17 14:43:40.425
24.0, 40215.234375, 31242.91015625, 29373.455078125, 24986.232421875, 27014.294921875, 34729.3359375, 33717.13671875, 27148.29296875, 0.0, 0.0, 0.0, 193.0, 0.0, 1.0, 1.0, 0.0, 0.0, 1.0, 1.0, 256.0, 1.0, 1.608195520425371E9, 2020-12-17 14:43:40.425
25.0, 40304.28515625, 31351.091796875, 29479.0, 25100.29296875, 27078.04296875, 34825.828125, 33801.4453125, 27250.732421875, 0.0, 0.0, 0.0, 193.0, 0.0, 1.0, 1.0, 0.0, 0.0, 1.0, 1.0, 256.0, 1.0, 1.608195520425373E9, 2020-12-17 14:43:40.425
26.0, 40337.58984375, 31385.291015625, 29509.576171875, 25135.654296875, 27095.341796875, 34859.46484375, 33835.265625, 27288.416015625, 0.0, 0.0, 0.0, 193.0, 0.0, 1.0, 1.0, 0.0, 0.0, 1.0, 1.0, 256.0, 1.0, 1.608195520425375E9, 2020-12-17 14:43:40.425
27.0, 40268.9921875, 31299.482421875, 29425.17578125, 25045.53125, 27046.68359375, 34787.0703125, 33766.421875, 27216.51171875, 0.0, 0.0, 0.0, 193.0, 0.0, 1.0, 1.0, 0.0, 0.0, 1.0, 1.0, 256.0, 1.0, 1.608195520425377E9, 2020-12-17 14:43:40.425
28.0, 40201.109375, 31218.546875, 29344.0625, 24957.375, 26999.923828125, 34702.71484375, 33690.828125, 27140.068359375, 0.0, 0.0, 0.0, 193.0, 0.0, 1.0, 1.0, 0.0, 0.0, 1.0, 1.0, 256.0, 1.0, 1.60819552042538E9, 2020-12-17 14:43:40.425
29.0, 40216.375, 31244.048828125, 29370.212890625, 24982.5, 27013.982421875, 34721.265625, 33711.4375, 27162.599609375, 0.0, 0.0, 0.0, 193.0, 0.0, 1.0, 1.0, 0.0, 0.0, 1.0, 1.0, 256.0, 1.0, 1.608195520425382E9, 2020-12-17 14:43:40.425
30.0, 40314.25390625, 31361.28515625, 29484.564453125, 25105.255859375, 27083.31640625, 34831.9296875, 33807.03515625, 27263.13671875, 0.0, 0.0, 0.0, 193.0, 0.0, 1.0, 1.0, 0.0, 0.0, 1.0, 1.0, 256.0, 1.0, 1.608195520484785E9, 2020-12-17 14:43:40.484
31.0, 40348.16015625, 31396.17578125, 29516.37109375, 25141.263671875, 27103.701171875, 34869.6796875, 33837.56640625, 27295.009765625, 0.0, 0.0, 0.0, 193.0, 0.0, 1.0, 1.0, 0.0, 0.0, 1.0, 1.0, 256.0, 1.0, 1.608195520484792E9, 2020-12-17 14:43:40.484
32.0, 40286.40234375, 31319.017578125, 29441.26953125, 25059.814453125, 27067.26953125, 34806.203125, 33782.515625, 27233.029296875, 0.0, 0.0, 0.0, 193.0, 0.0, 1.0, 1.0, 0.0, 0.0, 1.0, 1.0, 256.0, 1.0, 1.608195520484795E9, 2020-12-17 14:43:40.484
33.0, 40217.22265625, 31235.17578125, 29360.423828125, 24976.576171875, 27028.265625, 34734.96875, 33719.125, 27163.0234375, 0.0, 0.0, 0.0, 193.0, 0.0, 1.0, 1.0, 0.0, 0.0, 1.0, 1.0, 256.0, 1.0, 1.608195520484797E9, 2020-12-17 14:43:40.484
34.0, 40232.109375, 31258.48828125, 29385.412109375, 25006.03515625, 27049.521484375, 34757.453125, 33737.51953125, 27185.419921875, 0.0, 0.0, 0.0, 193.0, 0.0, 1.0, 1.0, 0.0, 0.0, 1.0, 1.0, 256.0, 1.0, 1.6081955204848E9, 2020-12-17 14:43:40.484
35.0, 40309.08984375, 31358.2890625, 29483.08984375, 25108.49609375, 27095.052734375, 34842.1875, 33812.46484375, 27274.759765625, 0.0, 0.0, 0.0, 193.0, 0.0, 1.0, 1.0, 0.0, 0.0, 1.0, 1.0, 256.0, 1.0, 1.608195520484802E9, 2020-12-17 14:43:40.484
36.0, 40330.078125, 31385.71484375, 29507.318359375, 25131.49609375, 27096.013671875, 34863.265625, 33833.8125, 27301.291015625, 0.0, 0.0, 0.0, 193.0, 0.0, 1.0, 1.0, 0.0, 0.0, 1.0, 1.0, 256.0, 1.0, 1.608195520484805E9, 2020-12-17 14:43:40.484
37.0, 40271.11328125, 31307.259765625, 29432.462890625, 25054.91796875, 27055.69140625, 34799.2734375, 33776.66015625, 27241.142578125, 0.0, 0.0, 0.0, 193.0, 0.0, 1.0, 1.0, 0.0, 0.0, 1.0, 1.0, 256.0, 1.0, 1.608195520484807E9, 2020-12-17 14:43:40.484
38.0, 40202.875, 31231.509765625, 29361.474609375, 24976.59765625, 27014.5625, 34731.01171875, 33716.890625, 27171.40625, 0.0, 0.0, 0.0, 193.0, 0.0, 1.0, 1.0, 0.0, 0.0, 1.0, 1.0, 256.0, 1.0, 1.60819552048481E9, 2020-12-17 14:43:40.484
39.0, 40220.82421875, 31254.935546875, 29385.927734375, 25003.978515625, 27034.947265625, 34753.5859375, 33731.41796875, 27189.107421875, 0.0, 0.0, 0.0, 193.0, 0.0, 1.0, 1.0, 0.0, 0.0, 1.0, 1.0, 256.0, 1.0, 1.608195520484812E9, 2020-12-17 14:43:40.484
40.0, 40302.25, 31353.640625, 29480.02734375, 25102.037109375, 27084.345703125, 34836.3984375, 33800.484375, 27268.30078125, 0.0, 0.0, 0.0, 193.0, 0.0, 1.0, 1.0, 0.0, 0.0, 1.0, 1.0, 256.0, 1.0, 1.608195520484815E9, 2020-12-17 14:43:40.484
41.0, 40326.32421875, 31383.189453125, 29504.369140625, 25123.806640625, 27088.234375, 34854.52734375, 33818.546875, 27295.255859375, 0.0, 0.0, 0.0, 193.0, 0.0, 1.0, 1.0, 0.0, 0.0, 1.0, 1.0, 256.0, 1.0, 1.608195520484817E9, 2020-12-17 14:43:40.484
42.0, 40265.34765625, 31302.0078125, 29425.19921875, 25041.6875, 27041.005859375, 34783.13671875, 33761.5703125, 27235.5546875, 0.0, 0.0, 0.0, 193.0, 0.0, 1.0, 1.0, 0.0, 0.0, 1.0, 1.0, 256.0, 1.0, 1.60819552048482E9, 2020-12-17 14:43:40.484
43.0, 40198.8515625, 31225.744140625, 29355.037109375, 24965.6015625, 27006.896484375, 34719.09765625, 33709.984375, 27181.150390625, 0.0, 0.0, 0.0, 193.0, 0.0, 1.0, 1.0, 0.0, 0.0, 1.0, 1.0, 256.0, 1.0, 1.608195520484822E9, 2020-12-17 14:43:40.484
44.0, 40220.01953125, 31258.33203125, 29386.8203125, 24997.876953125, 27034.30078125, 34748.33203125, 33730.078125, 27197.087890625, 0.0, 0.0, 0.0, 193.0, 0.0, 1.0, 1.0, 0.0, 0.0, 1.0, 1.0, 256.0, 1.0, 1.608195520484825E9, 2020-12-17 14:43:40.484
45.0, 40305.19921875, 31360.345703125, 29483.4921875, 25103.533203125, 27089.44140625, 34838.390625, 33804.9765625, 27283.72265625, 0.0, 0.0, 0.0, 193.0, 0.0, 1.0, 1.0, 0.0, 0.0, 1.0, 1.0, 256.0, 1.0, 1.608195520544463E9, 2020-12-17 14:43:40.544
46.0, 40329.49609375, 31380.373046875, 29500.099609375, 25123.986328125, 27097.82421875, 34855.66796875, 33823.75390625, 27311.88671875, 0.0, 0.0, 0.0, 193.0, 0.0, 1.0, 1.0, 0.0, 0.0, 1.0, 1.0, 256.0, 1.0, 1.608195520544469E9, 2020-12-17 14:43:40.544
47.0, 40253.27734375, 31296.53125, 29416.81640625, 25031.025390625, 27035.998046875, 34771.265625, 33757.2578125, 27245.099609375, 0.0, 0.0, 0.0, 193.0, 0.0, 1.0, 1.0, 0.0, 0.0, 1.0, 1.0, 256.0, 1.0, 1.608195520544472E9, 2020-12-17 14:43:40.544
48.0, 40198.203125, 31230.28125, 29355.283203125, 24964.349609375, 27009.466796875, 34714.55859375, 33712.1953125, 27189.3984375, 0.0, 0.0, 0.0, 193.0, 0.0, 1.0, 1.0, 0.0, 0.0, 1.0, 1.0, 256.0, 1.0, 1.608195520544474E9, 2020-12-17 14:43:40.544
49.0, 40213.2890625, 31253.638671875, 29381.12109375, 24989.830078125, 27025.58203125, 34736.01953125, 33730.6796875, 27203.5703125, 0.0, 0.0, 0.0, 193.0, 0.0, 1.0, 1.0, 0.0, 0.0, 1.0, 1.0, 256.0, 1.0, 1.608195520544476E9, 2020-12-17 14:43:40.544
50.0, 40297.625, 31352.767578125, 29476.4296875, 25091.798828125, 27074.82421875, 34824.375, 33798.453125, 27287.880859375, 0.0, 0.0, 0.0, 193.0, 0.0, 1.0, 1.0, 0.0, 0.0, 1.0, 1.0, 256.0, 1.0, 1.608195520544479E9, 2020-12-17 14:43:40.544
51.0, 40320.87109375, 31376.439453125, 29497.171875, 25114.84375, 27075.091796875, 34839.640625, 33810.8359375, 27310.052734375, 0.0, 0.0, 0.0, 193.0, 0.0, 1.0, 1.0, 0.0, 0.0, 1.0, 1.0, 256.0, 1.0, 1.608195520544481E9, 2020-12-17 14:43:40.544
52.0, 40259.19921875, 31302.587890625, 29426.62890625, 25038.892578125, 27035.126953125, 34772.02734375, 33755.625, 27250.53125, 0.0, 0.0, 0.0, 193.0, 0.0, 1.0, 1.0, 0.0, 0.0, 1.0, 1.0, 256.0, 1.0, 1.608195520544484E9, 2020-12-17 14:43:40.544
53.0, 40190.71484375, 31224.55859375, 29351.83984375, 24957.3984375, 27000.97265625, 34710.828125, 33704.10546875, 27194.31640625, 0.0, 0.0, 0.0, 193.0, 0.0, 1.0, 1.0, 0.0, 0.0, 1.0, 1.0, 256.0, 1.0, 1.608195520544493E9, 2020-12-17 14:43:40.544
54.0, 40216.0625, 31250.77734375, 29376.740234375, 24987.21484375, 27030.634765625, 34738.3203125, 33724.9375, 27219.86328125, 0.0, 0.0, 0.0, 193.0, 0.0, 1.0, 1.0, 0.0, 0.0, 1.0, 1.0, 256.0, 1.0, 1.608195520544496E9, 2020-12-17 14:43:40.544
55.0, 40312.0390625, 31360.814453125, 29481.904296875, 25100.62890625, 27086.78125, 34835.953125, 33805.11328125, 27303.861328125, 0.0, 0.0, 0.0, 193.0, 0.0, 1.0, 1.0, 0.0, 0.0, 1.0, 1.0, 256.0, 1.0, 1.608195520544498E9, 2020-12-17 14:43:40.544
56.0, 40340.671875, 31399.640625, 29508.90625, 25121.37109375, 27079.494140625, 34845.38671875, 33817.60546875, 27313.853515625, 0.0, 0.0, 0.0, 193.0, 0.0, 1.0, 1.0, 0.0, 0.0, 1.0, 1.0, 256.0, 1.0, 1.608195520544501E9, 2020-12-17 14:43:40.544
57.0, 40280.97265625, 31332.048828125, 29442.5, 25051.72265625, 27046.146484375, 34788.09765625, 33768.6328125, 27265.86328125, 0.0, 0.0, 0.0, 193.0, 0.0, 1.0, 1.0, 0.0, 0.0, 1.0, 1.0, 256.0, 1.0, 1.608195520544503E9, 2020-12-17 14:43:40.544
58.0, 40203.27734375, 31245.61328125, 29361.51953125, 24967.009765625, 27003.677734375, 34716.48046875, 33705.71484375, 27203.546875, 0.0, 0.0, 0.0, 193.0, 0.0, 1.0, 1.0, 0.0, 0.0, 1.0, 1.0, 256.0, 1.0, 1.608195520544506E9, 2020-12-17 14:43:40.544
59.0, 40220.51171875, 31273.263671875, 29389.056640625, 24993.80859375, 27021.380859375, 34735.5703125, 33722.4765625, 27210.85546875, 0.0, 0.0, 0.0, 193.0, 0.0, 1.0, 1.0, 0.0, 0.0, 1.0, 1.0, 256.0, 1.0, 1.608195520544508E9, 2020-12-17 14:43:40.544
60.0, 40320.17578125, 31381.111328125, 29494.310546875, 25108.630859375, 27091.6328125, 34837.40625, 33809.5390625, 27303.884765625, 0.0, 0.0, 0.0, 193.0, 0.0, 1.0, 1.0, 0.0, 0.0, 1.0, 1.0, 256.0, 1.0, 1.608195520604707E9, 2020-12-17 14:43:40.604
61.0, 40349.09765625, 31415.8671875, 29525.759765625, 25138.46875, 27103.970703125, 34863.35546875, 33836.76171875, 27345.1015625, 0.0, 0.0, 0.0, 193.0, 0.0, 1.0, 1.0, 0.0, 0.0, 1.0, 1.0, 256.0, 1.0, 1.608195520604716E9, 2020-12-17 14:43:40.604
62.0, 40278.24609375, 31335.06640625, 29447.818359375, 25055.947265625, 27055.7578125, 34793.75390625, 33776.45703125, 27290.115234375, 0.0, 0.0, 0.0, 193.0, 0.0, 1.0, 1.0, 0.0, 0.0, 1.0, 1.0, 256.0, 1.0, 1.608195520604719E9, 2020-12-17 14:43:40.604
63.0, 40220.7109375, 31261.88671875, 29376.8515625, 24981.91796875, 27019.32421875, 34729.4453125, 33717.24609375, 27231.95703125, 0.0, 0.0, 0.0, 193.0, 0.0, 1.0, 1.0, 0.0, 0.0, 1.0, 1.0, 256.0, 1.0, 1.608195520604723E9, 2020-12-17 14:43:40.604
64.0, 40230.3203125, 31286.697265625, 29400.90234375, 25003.173828125, 27034.970703125, 34745.7421875, 33735.6640625, 27253.078125, 0.0, 0.0, 0.0, 193.0, 0.0, 1.0, 1.0, 0.0, 0.0, 1.0, 1.0, 256.0, 1.0, 1.608195520604726E9, 2020-12-17 14:43:40.604
65.0, 40305.19921875, 31387.771484375, 29497.796875, 25103.064453125, 27081.796875, 34831.796875, 33809.3359375, 27334.70703125, 0.0, 0.0, 0.0, 193.0, 0.0, 1.0, 1.0, 0.0, 0.0, 1.0, 1.0, 256.0, 1.0, 1.608195520604729E9, 2020-12-17 14:43:40.604
66.0, 40342.171875, 31423.265625, 29526.162109375, 25136.099609375, 27095.521484375, 34855.890625, 33823.10546875, 27351.224609375, 0.0, 0.0, 0.0, 193.0, 0.0, 1.0, 1.0, 0.0, 0.0, 1.0, 1.0, 256.0, 1.0, 1.608195520604732E9, 2020-12-17 14:43:40.604
67.0, 40279.96484375, 31346.509765625, 29450.322265625, 25053.220703125, 27044.693359375, 34786.109375, 33758.7109375, 27271.541015625, 0.0, 0.0, 0.0, 193.0, 0.0, 1.0, 1.0, 0.0, 0.0, 1.0, 1.0, 256.0, 1.0, 1.608195520604736E9, 2020-12-17 14:43:40.604
68.0, 40228.51171875, 31280.05859375, 29385.568359375, 24983.884765625, 27021.40234375, 34732.5546875, 33713.06640625, 27205.267578125, 0.0, 0.0, 0.0, 193.0, 0.0, 1.0, 1.0, 0.0, 0.0, 1.0, 1.0, 256.0, 1.0, 1.608195520604739E9, 2020-12-17 14:43:40.604
69.0, 40247.2421875, 31305.16015625, 29411.787109375, 25013.099609375, 27046.638671875, 34757.921875, 33734.5703125, 27217.71875, 0.0, 0.0, 0.0, 193.0, 0.0, 1.0, 1.0, 0.0, 0.0, 1.0, 1.0, 256.0, 1.0, 1.608195520604742E9, 2020-12-17 14:43:40.604
70.0, 40338.01171875, 31421.27734375, 29518.919921875, 25125.4609375, 27110.2734375, 34853.58984375, 33812.69140625, 27304.845703125, 0.0, 0.0, 0.0, 193.0, 0.0, 1.0, 1.0, 0.0, 0.0, 1.0, 1.0, 256.0, 1.0, 1.608195520604745E9, 2020-12-17 14:43:40.604
71.0, 40376.234375, 31471.0546875, 29563.310546875, 25170.142578125, 27141.990234375, 34902.11328125, 33858.95703125, 27354.466796875, 0.0, 0.0, 0.0, 193.0, 0.0, 1.0, 1.0, 0.0, 0.0, 1.0, 1.0, 256.0, 1.0, 1.608195520604749E9, 2020-12-17 14:43:40.604
72.0, 40323.484375, 31406.970703125, 29502.333984375, 25107.021484375, 27109.71484375, 34854.55078125, 33823.46484375, 27317.294921875, 0.0, 0.0, 0.0, 193.0, 0.0, 1.0, 1.0, 0.0, 0.0, 1.0, 1.0, 256.0, 1.0, 1.608195520604752E9, 2020-12-17 14:43:40.604
73.0, 40252.046875, 31329.58984375, 29431.234375, 25031.29296875, 27058.8203125, 34794.64453125, 33783.296875, 27289.220703125, 0.0, 0.0, 0.0, 193.0, 0.0, 1.0, 1.0, 0.0, 0.0, 1.0, 1.0, 256.0, 1.0, 1.608195520604756E9, 2020-12-17 14:43:40.604
74.0, 40264.83203125, 31354.98046875, 29455.84375, 25053.041015625, 27062.6875, 34814.18359375, 33807.8828125, 27332.673828125, 0.0, 0.0, 0.0, 193.0, 0.0, 1.0, 1.0, 0.0, 0.0, 1.0, 1.0, 256.0, 1.0, 1.608195520604759E9, 2020-12-17 14:43:40.604
75.0, 40348.33984375, 31460.4375, 29552.4921875, 25149.82421875, 27100.05859375, 34887.33984375, 33872.45703125, 27413.51953125, 0.0, 0.0, 0.0, 193.0, 0.0, 1.0, 1.0, 0.0, 0.0, 1.0, 1.0, 256.0, 1.0, 1.608195520665059E9, 2020-12-17 14:43:40.665
76.0, 40366.109375, 31483.861328125, 29567.892578125, 25161.828125, 27084.5234375, 34880.6328125, 33873.80078125, 27426.3046875, 0.0, 0.0, 0.0, 193.0, 0.0, 1.0, 1.0, 0.0, 0.0, 1.0, 1.0, 256.0, 1.0, 1.608195520665065E9, 2020-12-17 14:43:40.665
77.0, 40301.51171875, 31405.96484375, 29489.638671875, 25077.515625, 27020.84375, 34798.6484375, 33803.63671875, 27359.517578125, 0.0, 0.0, 0.0, 193.0, 0.0, 1.0, 1.0, 0.0, 0.0, 1.0, 1.0, 256.0, 1.0, 1.608195520665079E9, 2020-12-17 14:43:40.665
78.0, 40235.953125, 31334.5078125, 29417.375, 24994.189453125, 26976.744140625, 34726.921875, 33740.3828125, 27291.634765625, 0.0, 0.0, 0.0, 193.0, 0.0, 1.0, 1.0, 0.0, 0.0, 1.0, 1.0, 256.0, 1.0, 1.608195520665081E9, 2020-12-17 14:43:40.665
79.0, 40244.828125, 31349.638671875, 29431.63671875, 25005.65625, 26983.986328125, 34726.51953125, 33740.6484375, 27292.91015625, 0.0, 0.0, 0.0, 193.0, 0.0, 1.0, 1.0, 0.0, 0.0, 1.0, 1.0, 256.0, 1.0, 1.608195520665082E9, 2020-12-17 14:43:40.665
80.0, 40330.90625, 31453.216796875, 29529.6484375, 25117.548828125, 27049.208984375, 34819.76953125, 33815.34765625, 27371.029296875, 0.0, 0.0, 0.0, 193.0, 0.0, 1.0, 1.0, 0.0, 0.0, 1.0, 1.0, 256.0, 1.0, 1.608195520665084E9, 2020-12-17 14:43:40.665
81.0, 40373.3046875, 31498.61328125, 29568.138671875, 25156.1953125, 27071.626953125, 34859.35546875, 33843.17578125, 27395.83984375, 0.0, 0.0, 0.0, 193.0, 0.0, 1.0, 1.0, 0.0, 0.0, 1.0, 1.0, 256.0, 1.0, 1.608195520665085E9, 2020-12-17 14:43:40.665
82.0, 40323.9765625, 31425.43359375, 29497.619140625, 25086.79296875, 27039.91015625, 34799.96484375, 33785.84375, 27333.947265625, 0.0, 0.0, 0.0, 193.0, 0.0, 1.0, 1.0, 0.0, 0.0, 1.0, 1.0, 256.0, 1.0, 1.608195520665087E9, 2020-12-17 14:43:40.665
83.0, 40264.2734375, 31353.416015625, 29429.490234375, 25017.970703125, 27011.724609375, 34740.28515625, 33729.69921875, 27273.28515625, 0.0, 0.0, 0.0, 193.0, 0.0, 1.0, 1.0, 0.0, 0.0, 1.0, 1.0, 256.0, 1.0, 1.608195520665088E9, 2020-12-17 14:43:40.665
84.0, 40271.3828125, 31366.537109375, 29446.521484375, 25032.232421875, 27032.66796875, 34766.05859375, 33749.61328125, 27295.033203125, 0.0, 0.0, 0.0, 193.0, 0.0, 1.0, 1.0, 0.0, 0.0, 1.0, 1.0, 256.0, 1.0, 1.60819552066509E9, 2020-12-17 14:43:40.665
85.0, 40335.48828125, 31451.49609375, 29526.36328125, 25119.26953125, 27073.974609375, 34840.421875, 33812.4453125, 27370.470703125, 0.0, 0.0, 0.0, 193.0, 0.0, 1.0, 1.0, 0.0, 0.0, 1.0, 1.0, 256.0, 1.0, 1.608195520665092E9, 2020-12-17 14:43:40.665
86.0, 40368.72265625, 31495.037109375, 29563.935546875, 25155.837890625, 27086.40234375, 34870.484375, 33841.5, 27403.640625, 0.0, 0.0, 0.0, 193.0, 0.0, 1.0, 1.0, 0.0, 0.0, 1.0, 1.0, 256.0, 1.0, 1.608195520665093E9, 2020-12-17 14:43:40.665
87.0, 40309.3359375, 31419.689453125, 29495.13671875, 25081.96484375, 27048.828125, 34811.34375, 33794.25, 27345.79296875, 0.0, 0.0, 0.0, 193.0, 0.0, 1.0, 1.0, 0.0, 0.0, 1.0, 1.0, 256.0, 1.0, 1.608195520665095E9, 2020-12-17 14:43:40.665
88.0, 40248.31640625, 31343.201171875, 29424.640625, 25008.76171875, 27021.55859375, 34749.94140625, 33741.38671875, 27280.326171875, 0.0, 0.0, 0.0, 193.0, 0.0, 1.0, 1.0, 0.0, 0.0, 1.0, 1.0, 256.0, 1.0, 1.608195520665096E9, 2020-12-17 14:43:40.665
89.0, 40267.0234375, 31360.76953125, 29442.56640625, 25027.537109375, 27036.51171875, 34762.68359375, 33748.62890625, 27289.580078125, 0.0, 0.0, 0.0, 193.0, 0.0, 1.0, 1.0, 0.0, 0.0, 1.0, 1.0, 256.0, 1.0, 1.608195520665098E9, 2020-12-17 14:43:40.665
90.0, 40348.36328125, 31457.6875, 29536.130859375, 25130.064453125, 27090.6484375, 34855.734375, 33818.76953125, 27371.119140625, 0.0, 0.0, 0.0, 193.0, 0.0, 1.0, 1.0, 0.0, 0.0, 1.0, 1.0, 256.0, 1.0, 1.608195520725409E9, 2020-12-17 14:43:40.725
91.0, 40369.6640625, 31484.375, 29561.8359375, 25157.916015625, 27103.298828125, 34885.19140625, 33848.921875, 27408.22265625, 0.0, 0.0, 0.0, 193.0, 0.0, 1.0, 1.0, 0.0, 0.0, 1.0, 1.0, 256.0, 1.0, 1.608195520725414E9, 2020-12-17 14:43:40.725
92.0, 40308.44140625, 31407.486328125, 29486.845703125, 25079.998046875, 27066.1953125, 34817.82421875, 33797.265625, 27361.55078125, 0.0, 0.0, 0.0, 193.0, 0.0, 1.0, 1.0, 0.0, 0.0, 1.0, 1.0, 256.0, 1.0, 1.608195520725416E9, 2020-12-17 14:43:40.725
93.0, 40250.03515625, 31336.4296875, 29418.068359375, 25005.431640625, 27025.783203125, 34750.45703125, 33742.81640625, 27300.28515625, 0.0, 0.0, 0.0, 193.0, 0.0, 1.0, 1.0, 0.0, 0.0, 1.0, 1.0, 256.0, 1.0, 1.608195520725417E9, 2020-12-17 14:43:40.725
94.0, 40259.0234375, 31349.169921875, 29431.92578125, 25017.994140625, 27036.400390625, 34758.59375, 33746.83984375, 27299.771484375, 0.0, 0.0, 0.0, 193.0, 0.0, 1.0, 1.0, 0.0, 0.0, 1.0, 1.0, 256.0, 1.0, 1.608195520725419E9, 2020-12-17 14:43:40.725
95.0, 40342.75, 31449.775390625, 29529.73828125, 25123.60546875, 27095.7890625, 34848.1328125, 33821.00390625, 27384.328125, 0.0, 0.0, 0.0, 193.0, 0.0, 1.0, 1.0, 0.0, 0.0, 1.0, 1.0, 256.0, 1.0, 1.608195520725421E9, 2020-12-17 14:43:40.725
96.0, 40367.203125, 31476.486328125, 29552.357421875, 25147.1640625, 27099.87890625, 34867.24609375, 33840.2734375, 27420.224609375, 0.0, 0.0, 0.0, 193.0, 0.0, 1.0, 1.0, 0.0, 0.0, 1.0, 1.0, 256.0, 1.0, 1.608195520725422E9, 2020-12-17 14:43:40.725
97.0, 40313.13671875, 31409.69921875, 29487.560546875, 25077.314453125, 27058.505859375, 34809.9140625, 33794.49609375, 27371.744140625, 0.0, 0.0, 0.0, 193.0, 0.0, 1.0, 1.0, 0.0, 0.0, 1.0, 1.0, 256.0, 1.0, 1.608195520725424E9, 2020-12-17 14:43:40.725
98.0, 40250.1484375, 31336.048828125, 29418.134765625, 25001.564453125, 27022.275390625, 34742.9453125, 33741.09765625, 27314.0546875, 0.0, 0.0, 0.0, 193.0, 0.0, 1.0, 1.0, 0.0, 0.0, 1.0, 1.0, 256.0, 1.0, 1.608195520725426E9, 2020-12-17 14:43:40.725
99.0, 40264.1640625, 31355.427734375, 29439.080078125, 25020.966796875, 27047.375, 34768.09375, 33755.73828125, 27324.537109375, 0.0, 0.0, 0.0, 193.0, 0.0, 1.0, 1.0, 0.0, 0.0, 1.0, 1.0, 256.0, 1.0, 1.608195520725427E9, 2020-12-17 14:43:40.725
100.0, 40351.53515625, 31452.814453125, 29533.046875, 25129.1484375, 27108.5078125, 34859.2890625, 33827.375, 27410.681640625, 0.0, 0.0, 0.0, 193.0, 0.0, 1.0, 1.0, 0.0, 0.0, 1.0, 1.0, 256.0, 1.0, 1.608195520725435E9, 2020-12-17 14:43:40.725
101.0, 40384.16796875, 31485.1796875, 29562.86328125, 25162.833984375, 27122.232421875, 34892.43359375, 33856.54296875, 27449.21484375, 0.0, 0.0, 0.0, 193.0, 0.0, 1.0, 1.0, 0.0, 0.0, 1.0, 1.0, 256.0, 1.0, 1.608195520725436E9, 2020-12-17 14:43:40.725
102.0, 40328.9375, 31413.69921875, 29493.482421875, 25092.3359375, 27082.69140625, 34832.77734375, 33802.609375, 27392.12890625, 0.0, 0.0, 0.0, 193.0, 0.0, 1.0, 1.0, 0.0, 0.0, 1.0, 1.0, 256.0, 1.0, 1.608195520725438E9, 2020-12-17 14:43:40.725
103.0, 40267.44921875, 31340.85546875, 29425.376953125, 25018.306640625, 27048.76171875, 34771.51171875, 33758.75390625, 27336.25, 0.0, 0.0, 0.0, 193.0, 0.0, 1.0, 1.0, 0.0, 0.0, 1.0, 1.0, 256.0, 1.0, 1.608195520725439E9, 2020-12-17 14:43:40.725
104.0, 40276.703125, 31356.12109375, 29442.857421875, 25034.84765625, 27066.263671875, 34788.8359375, 33767.8515625, 27342.150390625, 0.0, 0.0, 0.0, 193.0, 0.0, 1.0, 1.0, 0.0, 0.0, 1.0, 1.0, 256.0, 1.0, 1.608195520725441E9, 2020-12-17 14:43:40.725
105.0, 40350.23828125, 31444.521484375, 29527.66015625, 25127.048828125, 27115.302734375, 34870.328125, 33830.68359375, 27419.21875, 0.0, 0.0, 0.0, 193.0, 0.0, 1.0, 1.0, 0.0, 0.0, 1.0, 1.0, 256.0, 1.0, 1.608195520784174E9, 2020-12-17 14:43:40.784
106.0, 40374.46875, 31476.0390625, 29556.08984375, 25155.189453125, 27121.671875, 34891.67578125, 33859.78515625, 27456.837890625, 0.0, 0.0, 0.0, 193.0, 0.0, 1.0, 1.0, 0.0, 0.0, 1.0, 1.0, 256.0, 1.0, 1.608195520784182E9, 2020-12-17 14:43:40.784
107.0, 40309.4921875, 31405.40625, 29486.28515625, 25077.740234375, 27072.185546875, 34820.05859375, 33801.4453125, 27389.55859375, 0.0, 0.0, 0.0, 193.0, 0.0, 1.0, 1.0, 0.0, 0.0, 1.0, 1.0, 256.0, 1.0, 1.608195520784185E9, 2020-12-17 14:43:40.784
108.0, 40255.33203125, 31334.283203125, 29419.23046875, 25009.701171875, 27041.162109375, 34761.23046875, 33747.578125, 27325.3203125, 0.0, 0.0, 0.0, 193.0, 0.0, 1.0, 1.0, 0.0, 0.0, 1.0, 1.0, 256.0, 1.0, 1.608195520784189E9, 2020-12-17 14:43:40.784
109.0, 40256.296875, 31338.28515625, 29423.74609375, 25014.10546875, 27052.515625, 34763.98046875, 33748.76171875, 27329.029296875, 0.0, 0.0, 0.0, 193.0, 0.0, 1.0, 1.0, 0.0, 0.0, 1.0, 1.0, 256.0, 1.0, 1.608195520784192E9, 2020-12-17 14:43:40.784
110.0, 40327.59765625, 31430.84375, 29512.326171875, 25106.55078125, 27101.130859375, 34842.1875, 33819.0390625, 27412.22265625, 0.0, 0.0, 0.0, 193.0, 0.0, 1.0, 1.0, 0.0, 0.0, 1.0, 1.0, 256.0, 1.0, 1.608195520784196E9, 2020-12-17 14:43:40.784
111.0, 40359.0, 31467.56640625, 29546.591796875, 25144.728515625, 27119.4375, 34877.28125, 33856.27734375, 27457.57421875, 0.0, 0.0, 0.0, 193.0, 0.0, 1.0, 1.0, 0.0, 0.0, 1.0, 1.0, 256.0, 1.0, 1.608195520784199E9, 2020-12-17 14:43:40.784
112.0, 40299.703125, 31399.484375, 29480.36328125, 25071.236328125, 27075.515625, 34812.4609375, 33805.0234375, 27399.83984375, 0.0, 0.0, 0.0, 193.0, 0.0, 1.0, 1.0, 0.0, 0.0, 1.0, 1.0, 256.0, 1.0, 1.608195520784202E9, 2020-12-17 14:43:40.784
113.0, 40246.7734375, 31328.44921875, 29414.40234375, 25000.759765625, 27048.8515625, 34751.73046875, 33752.3828125, 27340.5859375, 0.0, 0.0, 0.0, 193.0, 0.0, 1.0, 1.0, 0.0, 0.0, 1.0, 1.0, 256.0, 1.0, 1.608195520784205E9, 2020-12-17 14:43:40.784
114.0, 40271.11328125, 31350.48828125, 29438.564453125, 25029.90625, 27083.5625, 34778.7109375, 33772.58984375, 27355.359375, 0.0, 0.0, 0.0, 193.0, 0.0, 1.0, 1.0, 0.0, 0.0, 1.0, 1.0, 256.0, 1.0, 1.608195520784208E9, 2020-12-17 14:43:40.784
115.0, 40347.6484375, 31445.640625, 29527.748046875, 25124.521484375, 27128.400390625, 34862.75390625, 33839.22265625, 27429.45703125, 0.0, 0.0, 0.0, 193.0, 0.0, 1.0, 1.0, 0.0, 0.0, 1.0, 1.0, 256.0, 1.0, 1.608195520784211E9, 2020-12-17 14:43:40.784
116.0, 40374.40234375, 31473.51171875, 29552.3359375, 25150.3828125, 27134.546875, 34891.36328125, 33861.55078125, 27458.46875, 0.0, 0.0, 0.0, 193.0, 0.0, 1.0, 1.0, 0.0, 0.0, 1.0, 1.0, 256.0, 1.0, 1.608195520784215E9, 2020-12-17 14:43:40.784
117.0, 40324.2890625, 31407.865234375, 29488.25390625, 25081.763671875, 27095.900390625, 34832.421875, 33812.15234375, 27407.23828125, 0.0, 0.0, 0.0, 193.0, 0.0, 1.0, 1.0, 0.0, 0.0, 1.0, 1.0, 256.0, 1.0, 1.608195520784218E9, 2020-12-17 14:43:40.784
118.0, 40260.765625, 31339.22265625, 29424.23828125, 25010.572265625, 27056.115234375, 34767.5546875, 33757.76953125, 27349.99609375, 0.0, 0.0, 0.0, 193.0, 0.0, 1.0, 1.0, 0.0, 0.0, 1.0, 1.0, 256.0, 1.0, 1.608195520784221E9, 2020-12-17 14:43:40.784
119.0, 40268.4765625, 31349.326171875, 29437.24609375, 25026.576171875, 27071.939453125, 34784.65625, 33769.328125, 27362.177734375, 0.0, 0.0, 0.0, 193.0, 0.0, 1.0, 1.0, 0.0, 0.0, 1.0, 1.0, 256.0, 1.0, 1.608195520784224E9, 2020-12-17 14:43:40.784
120.0, 40349.30078125, 31442.17578125, 29526.33984375, 25120.744140625, 27129.83203125, 34867.51171875, 33838.59375, 27436.1171875, 0.0, 0.0, 0.0, 193.0, 0.0, 1.0, 1.0, 0.0, 0.0, 1.0, 1.0, 256.0, 1.0, 1.608195520844521E9, 2020-12-17 14:43:40.844
121.0, 40384.05859375, 31483.951171875, 29563.17578125, 25163.66015625, 27141.56640625, 34902.6484375, 33871.7421875, 27472.416015625, 0.0, 0.0, 0.0, 193.0, 0.0, 1.0, 1.0, 0.0, 0.0, 1.0, 1.0, 256.0, 1.0, 1.608195520844525E9, 2020-12-17 14:43:40.844
122.0, 40323.3046875, 31414.66015625, 29496.009765625, 25091.12890625, 27097.7109375, 34840.66796875, 33825.140625, 27422.99609375, 0.0, 0.0, 0.0, 193.0, 0.0, 1.0, 1.0, 0.0, 0.0, 1.0, 1.0, 256.0, 1.0, 1.608195520844526E9, 2020-12-17 14:43:40.844
123.0, 40265.19140625, 31342.30859375, 29425.935546875, 25014.349609375, 27064.36328125, 34772.00390625, 33766.95703125, 27359.2265625, 0.0, 0.0, 0.0, 193.0, 0.0, 1.0, 1.0, 0.0, 0.0, 1.0, 1.0, 256.0, 1.0, 1.608195520844533E9, 2020-12-17 14:43:40.844
124.0, 40269.81640625, 31346.15234375, 29430.5859375, 25019.513671875, 27075.29296875, 34779.11328125, 33765.3046875, 27359.986328125, 0.0, 0.0, 0.0, 193.0, 0.0, 1.0, 1.0, 0.0, 0.0, 1.0, 1.0, 256.0, 1.0, 1.608195520844535E9, 2020-12-17 14:43:40.844
125.0, 40341.45703125, 31438.197265625, 29519.701171875, 25111.625, 27118.923828125, 34855.95703125, 33839.48828125, 27443.42578125, 0.0, 0.0, 0.0, 193.0, 0.0, 1.0, 1.0, 0.0, 0.0, 1.0, 1.0, 256.0, 1.0, 1.608195520844536E9, 2020-12-17 14:43:40.844
126.0, 40374.24609375, 31477.201171875, 29554.123046875, 25149.869140625, 27130.234375, 34886.55859375, 33873.015625, 27475.412109375, 0.0, 0.0, 0.0, 193.0, 0.0, 1.0, 1.0, 0.0, 0.0, 1.0, 1.0, 256.0, 1.0, 1.608195520844538E9, 2020-12-17 14:43:40.844
127.0, 40325.85546875, 31409.251953125, 29489.52734375, 25084.333984375, 27097.107421875, 34831.37109375, 33820.4921875, 27416.40234375, 0.0, 0.0, 0.0, 193.0, 0.0, 1.0, 1.0, 0.0, 0.0, 1.0, 1.0, 256.0, 1.0, 1.608195520844539E9, 2020-12-17 14:43:40.844
128.0, 40265.97265625, 31339.625, 29426.0703125, 25012.2265625, 27061.345703125, 34771.98046875, 33771.09375, 27360.076171875, 0.0, 0.0, 0.0, 193.0, 0.0, 1.0, 1.0, 0.0, 0.0, 1.0, 1.0, 256.0, 1.0, 1.608195520844541E9, 2020-12-17 14:43:40.844
129.0, 40268.609375, 31346.80078125, 29434.474609375, 25020.67578125, 27081.619140625, 34778.62109375, 33777.08203125, 27367.453125, 0.0, 0.0, 0.0, 193.0, 0.0, 1.0, 1.0, 0.0, 0.0, 1.0, 1.0, 256.0, 1.0, 1.608195520844542E9, 2020-12-17 14:43:40.844
130.0, 40334.37109375, 31432.810546875, 29516.28125, 25106.998046875, 27126.2109375, 34855.17578125, 33839.4453125, 27442.263671875, 0.0, 0.0, 0.0, 193.0, 0.0, 1.0, 1.0, 0.0, 0.0, 1.0, 1.0, 256.0, 1.0, 1.608195520844544E9, 2020-12-17 14:43:40.844
131.0, 40371.765625, 31472.349609375, 29552.0234375, 25146.8515625, 27145.232421875, 34892.0546875, 33870.71484375, 27479.591796875, 0.0, 0.0, 0.0, 193.0, 0.0, 1.0, 1.0, 0.0, 0.0, 1.0, 1.0, 256.0, 1.0, 1.608195520844546E9, 2020-12-17 14:43:40.844
132.0, 40325.2265625, 31407.5078125, 29491.091796875, 25084.400390625, 27113.224609375, 34838.94921875, 33823.84375, 27431.244140625, 0.0, 0.0, 0.0, 193.0, 0.0, 1.0, 1.0, 0.0, 0.0, 1.0, 1.0, 256.0, 1.0, 1.608195520844547E9, 2020-12-17 14:43:40.844
133.0, 40259.46875, 31338.53125, 29423.6796875, 25005.87890625, 27061.994140625, 34768.8984375, 33765.01171875, 27361.5078125, 0.0, 0.0, 0.0, 193.0, 0.0, 1.0, 1.0, 0.0, 0.0, 1.0, 1.0, 256.0, 1.0, 1.608195520844549E9, 2020-12-17 14:43:40.844
134.0, 40276.1640625, 31354.310546875, 29439.99609375, 25024.990234375, 27082.177734375, 34783.0, 33775.18359375, 27367.318359375, 0.0, 0.0, 0.0, 193.0, 0.0, 1.0, 1.0, 0.0, 0.0, 1.0, 1.0, 256.0, 1.0, 1.60819552084455E9, 2020-12-17 14:43:40.844
135.0, 40362.734375, 31448.03125, 29529.513671875, 25127.896484375, 27135.3515625, 34871.3125, 33843.7578125, 27446.0859375, 0.0, 0.0, 0.0, 193.0, 0.0, 1.0, 1.0, 0.0, 0.0, 1.0, 1.0, 256.0, 1.0, 1.60819552090476E9, 2020-12-17 14:43:40.904
136.0, 40384.953125, 31479.2578125, 29554.771484375, 25155.970703125, 27141.900390625, 34899.51953125, 33868.5, 27479.837890625, 0.0, 0.0, 0.0, 193.0, 0.0, 1.0, 1.0, 0.0, 0.0, 1.0, 1.0, 256.0, 1.0, 1.608195520904766E9, 2020-12-17 14:43:40.904
137.0, 40338.83984375, 31421.72265625, 29498.736328125, 25091.91015625, 27105.646484375, 34844.8046875, 33831.80078125, 27434.5078125, 0.0, 0.0, 0.0, 193.0, 0.0, 1.0, 1.0, 0.0, 0.0, 1.0, 1.0, 256.0, 1.0, 1.608195520904768E9, 2020-12-17 14:43:40.904
138.0, 40278.4921875, 31351.404296875, 29431.970703125, 25017.166015625, 27067.224609375, 34774.171875, 33783.7890625, 27375.140625, 0.0, 0.0, 0.0, 193.0, 0.0, 1.0, 1.0, 0.0, 0.0, 1.0, 1.0, 256.0, 1.0, 1.608195520904771E9, 2020-12-17 14:43:40.904
139.0, 40269.28125, 31343.224609375, 29427.43359375, 25015.826171875, 27073.548828125, 34776.49609375, 33775.98828125, 27377.130859375, 0.0, 0.0, 0.0, 193.0, 0.0, 1.0, 1.0, 0.0, 0.0, 1.0, 1.0, 256.0, 1.0, 1.608195520904773E9, 2020-12-17 14:43:40.904
140.0, 40346.0390625, 31434.486328125, 29516.953125, 25115.0, 27126.74609375, 34862.70703125, 33836.359375, 27454.669921875, 0.0, 0.0, 0.0, 193.0, 0.0, 1.0, 1.0, 0.0, 0.0, 1.0, 1.0, 256.0, 1.0, 1.608195520904776E9, 2020-12-17 14:43:40.904
141.0, 40385.30859375, 31480.12890625, 29557.029296875, 25156.015625, 27142.974609375, 34904.75, 33874.44921875, 27494.455078125, 0.0, 0.0, 0.0, 193.0, 0.0, 1.0, 1.0, 0.0, 0.0, 1.0, 1.0, 256.0, 1.0, 1.608195520904778E9, 2020-12-17 14:43:40.904
142.0, 40328.4453125, 31408.021484375, 29488.7890625, 25082.9921875, 27102.62890625, 34842.58984375, 33827.8203125, 27449.908203125, 0.0, 0.0, 0.0, 193.0, 0.0, 1.0, 1.0, 0.0, 0.0, 1.0, 1.0, 256.0, 1.0, 1.608195520904781E9, 2020-12-17 14:43:40.904
143.0, 40272.3203125, 31337.681640625, 29421.041015625, 25009.388671875, 27072.857421875, 34778.15234375, 33779.2734375, 27389.24609375, 0.0, 0.0, 0.0, 193.0, 0.0, 1.0, 1.0, 0.0, 0.0, 1.0, 1.0, 256.0, 1.0, 1.608195520904783E9, 2020-12-17 14:43:40.904
144.0, 40267.875, 31340.900390625, 29423.365234375, 25009.27734375, 27074.935546875, 34774.0390625, 33776.078125, 27377.98046875, 0.0, 0.0, 0.0, 193.0, 0.0, 1.0, 1.0, 0.0, 0.0, 1.0, 1.0, 256.0, 1.0, 1.608195520904785E9, 2020-12-17 14:43:40.904
145.0, 40333.8125, 31430.396484375, 29504.927734375, 25093.38671875, 27105.982421875, 34837.62890625, 33829.83203125, 27444.990234375, 0.0, 0.0, 0.0, 193.0, 0.0, 1.0, 1.0, 0.0, 0.0, 1.0, 1.0, 256.0, 1.0, 1.608195520904788E9, 2020-12-17 14:43:40.904
146.0, 40368.3671875, 31468.55078125, 29539.68359375, 25128.5, 27113.87109375, 34869.078125, 33856.4765625, 27483.435546875, 0.0, 0.0, 0.0, 193.0, 0.0, 1.0, 1.0, 0.0, 0.0, 1.0, 1.0, 256.0, 1.0, 1.608195520904799E9, 2020-12-17 14:43:40.904
147.0, 40318.0546875, 31406.724609375, 29478.26171875, 25064.462890625, 27081.060546875, 34813.04296875, 33811.5703125, 27435.37890625, 0.0, 0.0, 0.0, 193.0, 0.0, 1.0, 1.0, 0.0, 0.0, 1.0, 1.0, 256.0, 1.0, 1.608195520904801E9, 2020-12-17 14:43:40.904
148.0, 40264.41015625, 31337.166015625, 29413.7109375, 25002.28125, 27051.33203125, 34757.296875, 33764.72265625, 27375.275390625, 0.0, 0.0, 0.0, 193.0, 0.0, 1.0, 1.0, 0.0, 0.0, 1.0, 1.0, 256.0, 1.0, 1.608195520904804E9, 2020-12-17 14:43:40.904
149.0, 40268.41015625, 31345.482421875, 29426.2265625, 25015.7578125, 27069.90625, 34772.046875, 33774.578125, 27384.88671875, 0.0, 0.0, 0.0, 193.0, 0.0, 1.0, 1.0, 0.0, 0.0, 1.0, 1.0, 256.0, 1.0, 1.608195520904806E9, 2020-12-17 14:43:40.904
150.0, 40333.18359375, 31430.171875, 29507.966796875, 25101.65625, 27109.69140625, 34845.296875, 33839.7109375, 27456.837890625, 0.0, 0.0, 0.0, 193.0, 0.0, 1.0, 1.0, 0.0, 0.0, 1.0, 1.0, 256.0, 1.0, 1.608195520965068E9, 2020-12-17 14:43:40.965
151.0, 40355.359375, 31460.2578125, 29535.34765625, 25130.580078125, 27111.056640625, 34868.33984375, 33863.96484375, 27487.548828125, 0.0, 0.0, 0.0, 193.0, 0.0, 1.0, 1.0, 0.0, 0.0, 1.0, 1.0, 256.0, 1.0, 1.608195520965075E9, 2020-12-17 14:43:40.965
152.0, 40312.2421875, 31402.099609375, 29480.02734375, 25072.822265625, 27090.111328125, 34824.6640625, 33825.31640625, 27451.47265625, 0.0, 0.0, 0.0, 193.0, 0.0, 1.0, 1.0, 0.0, 0.0, 1.0, 1.0, 256.0, 1.0, 1.608195520965078E9, 2020-12-17 14:43:40.965
153.0, 40266.80078125, 31334.931640625, 29414.357421875, 25004.896484375, 27068.185546875, 34770.640625, 33773.05859375, 27392.1953125, 0.0, 0.0, 0.0, 193.0, 0.0, 1.0, 1.0, 0.0, 0.0, 1.0, 1.0, 256.0, 1.0, 1.60819552096508E9, 2020-12-17 14:43:40.965
154.0, 40267.15625, 31337.45703125, 29416.34765625, 25005.455078125, 27063.22265625, 34769.2109375, 33764.12109375, 27379.947265625, 0.0, 0.0, 0.0, 193.0, 0.0, 1.0, 1.0, 0.0, 0.0, 1.0, 1.0, 256.0, 1.0, 1.608195520965083E9, 2020-12-17 14:43:40.965
155.0, 40339.375, 31429.703125, 29504.212890625, 25096.716796875, 27110.33984375, 34843.1484375, 33824.91796875, 27448.34375, 0.0, 0.0, 0.0, 193.0, 0.0, 1.0, 1.0, 0.0, 0.0, 1.0, 1.0, 256.0, 1.0, 1.608195520965085E9, 2020-12-17 14:43:40.965
156.0, 40375.38671875, 31471.43359375, 29543.640625, 25138.3125, 27121.337890625, 34872.25, 33861.05859375, 27488.93359375, 0.0, 0.0, 0.0, 193.0, 0.0, 1.0, 1.0, 0.0, 0.0, 1.0, 1.0, 256.0, 1.0, 1.608195520965088E9, 2020-12-17 14:43:40.965
157.0, 40322.1875, 31407.41796875, 29482.28515625, 25074.69921875, 27087.83203125, 34823.0546875, 33821.921875, 27444.90234375, 0.0, 0.0, 0.0, 193.0, 0.0, 1.0, 1.0, 0.0, 0.0, 1.0, 1.0, 256.0, 1.0, 1.60819552096509E9, 2020-12-17 14:43:40.965
158.0, 40260.80859375, 31333.880859375, 29410.9375, 24996.177734375, 27051.935546875, 34755.6875, 33766.0859375, 27380.037109375, 0.0, 0.0, 0.0, 193.0, 0.0, 1.0, 1.0, 0.0, 0.0, 1.0, 1.0, 256.0, 1.0, 1.608195520965092E9, 2020-12-17 14:43:40.965
159.0, 40264.38671875, 31338.798828125, 29416.705078125, 24999.1953125, 27058.08203125, 34756.58203125, 33764.9921875, 27375.54296875, 0.0, 0.0, 0.0, 193.0, 0.0, 1.0, 1.0, 0.0, 0.0, 1.0, 1.0, 256.0, 1.0, 1.608195520965095E9, 2020-12-17 14:43:40.965
160.0, 40348.62890625, 31439.404296875, 29512.662109375, 25102.28125, 27106.33984375, 34838.87890625, 33832.94140625, 27457.060546875, 0.0, 0.0, 0.0, 193.0, 0.0, 1.0, 1.0, 0.0, 0.0, 1.0, 1.0, 256.0, 1.0, 1.608195520965097E9, 2020-12-17 14:43:40.965
161.0, 40380.01171875, 31477.580078125, 29549.943359375, 25143.095703125, 27128.580078125, 34875.55859375, 33869.55078125, 27501.71875, 0.0, 0.0, 0.0, 193.0, 0.0, 1.0, 1.0, 0.0, 0.0, 1.0, 1.0, 256.0, 1.0, 1.6081955209651E9, 2020-12-17 14:43:40.965
162.0, 40316.6015625, 31404.53515625, 29482.888671875, 25073.001953125, 27091.162109375, 34824.5078125, 33824.78125, 27444.521484375, 0.0, 0.0, 0.0, 193.0, 0.0, 1.0, 1.0, 0.0, 0.0, 1.0, 1.0, 256.0, 1.0, 1.608195520965102E9, 2020-12-17 14:43:40.965
163.0, 40262.890625, 31335.892578125, 29414.783203125, 24999.8671875, 27060.205078125, 34765.65625, 33770.19921875, 27386.49609375, 0.0, 0.0, 0.0, 193.0, 0.0, 1.0, 1.0, 0.0, 0.0, 1.0, 1.0, 256.0, 1.0, 1.608195520965105E9, 2020-12-17 14:43:40.965
164.0, 40272.0546875, 31347.740234375, 29425.421875, 25011.33203125, 27072.96875, 34771.33203125, 33773.953125, 27391.345703125, 0.0, 0.0, 0.0, 193.0, 0.0, 1.0, 1.0, 0.0, 0.0, 1.0, 1.0, 256.0, 1.0, 1.608195520965107E9, 2020-12-17 14:43:40.965
165.0, 40342.796875, 31437.482421875, 29512.6171875, 25104.65234375, 27128.1328125, 34853.09765625, 33843.71484375, 27461.732421875, 0.0, 0.0, 0.0, 193.0, 0.0, 1.0, 1.0, 0.0, 0.0, 1.0, 1.0, 256.0, 1.0, 1.608195521025451E9, 2020-12-17 14:43:41.025
166.0, 40384.9296875, 31482.87890625, 29555.419921875, 25151.09765625, 27146.103515625, 34895.36328125, 33881.53125, 27504.2890625, 0.0, 0.0, 0.0, 193.0, 0.0, 1.0, 1.0, 0.0, 0.0, 1.0, 1.0, 256.0, 1.0, 1.608195521025457E9, 2020-12-17 14:43:41.025
167.0, 40329.49609375, 31413.921875, 29488.744140625, 25080.421875, 27103.2109375, 34836.51171875, 33834.66015625, 27452.791015625, 0.0, 0.0, 0.0, 193.0, 0.0, 1.0, 1.0, 0.0, 0.0, 1.0, 1.0, 256.0, 1.0, 1.608195521025459E9, 2020-12-17 14:43:41.025
168.0, 40260.98828125, 31337.123046875, 29414.91796875, 24998.591796875, 27063.8046875, 34765.65625, 33777.10546875, 27388.6875, 0.0, 0.0, 0.0, 193.0, 0.0, 1.0, 1.0, 0.0, 0.0, 1.0, 1.0, 256.0, 1.0, 1.608195521025462E9, 2020-12-17 14:43:41.025
169.0, 40263.828125, 31340.2734375, 29416.927734375, 24998.5703125, 27069.7265625, 34762.68359375, 33769.23828125, 27386.8984375, 0.0, 0.0, 0.0, 193.0, 0.0, 1.0, 1.0, 0.0, 0.0, 1.0, 1.0, 256.0, 1.0, 1.608195521025464E9, 2020-12-17 14:43:41.025
170.0, 40339.3984375, 31434.91015625, 29507.408203125, 25094.99609375, 27117.26953125, 34846.8828125, 33836.671875, 27460.279296875, 0.0, 0.0, 0.0, 193.0, 0.0, 1.0, 1.0, 0.0, 0.0, 1.0, 1.0, 256.0, 1.0, 1.608195521025476E9, 2020-12-17 14:43:41.025
171.0, 40372.58984375, 31472.193359375, 29542.947265625, 25140.146484375, 27132.15625, 34881.90625, 33871.36328125, 27501.541015625, 0.0, 0.0, 0.0, 193.0, 0.0, 1.0, 1.0, 0.0, 0.0, 1.0, 1.0, 256.0, 1.0, 1.608195521025478E9, 2020-12-17 14:43:41.025
172.0, 40324.66796875, 31412.828125, 29486.443359375, 25076.935546875, 27095.744140625, 34830.1875, 33830.28125, 27458.22265625, 0.0, 0.0, 0.0, 193.0, 0.0, 1.0, 1.0, 0.0, 0.0, 1.0, 1.0, 256.0, 1.0, 1.608195521025481E9, 2020-12-17 14:43:41.025
173.0, 40270.77734375, 31343.849609375, 29420.638671875, 25006.19140625, 27069.59375, 34770.171875, 33776.7265625, 27390.67578125, 0.0, 0.0, 0.0, 193.0, 0.0, 1.0, 1.0, 0.0, 0.0, 1.0, 1.0, 256.0, 1.0, 1.608195521025483E9, 2020-12-17 14:43:41.025
174.0, 40269.66015625, 31347.29296875, 29426.5625, 25008.962890625, 27081.9765625, 34776.7421875, 33782.06640625, 27392.642578125, 0.0, 0.0, 0.0, 193.0, 0.0, 1.0, 1.0, 0.0, 0.0, 1.0, 1.0, 256.0, 1.0, 1.608195521025486E9, 2020-12-17 14:43:41.025
175.0, 40340.0703125, 31434.8671875, 29510.671875, 25098.83984375, 27126.76953125, 34853.140625, 33844.13671875, 27471.58984375, 0.0, 0.0, 0.0, 193.0, 0.0, 1.0, 1.0, 0.0, 0.0, 1.0, 1.0, 256.0, 1.0, 1.608195521025488E9, 2020-12-17 14:43:41.025
176.0, 40379.2734375, 31475.94921875, 29548.625, 25144.080078125, 27143.2421875, 34891.25, 33874.984375, 27505.1171875, 0.0, 0.0, 0.0, 193.0, 0.0, 1.0, 1.0, 0.0, 0.0, 1.0, 1.0, 256.0, 1.0, 1.608195521025491E9, 2020-12-17 14:43:41.025
177.0, 40345.34375, 31424.583984375, 29499.67578125, 25095.21875, 27128.064453125, 34858.21484375, 33844.765625, 27460.591796875, 0.0, 0.0, 0.0, 193.0, 0.0, 1.0, 1.0, 0.0, 0.0, 1.0, 1.0, 256.0, 1.0, 1.608195521025493E9, 2020-12-17 14:43:41.025
178.0, 40276.96875, 31352.03125, 29427.61328125, 25012.875, 27083.8984375, 34784.921875, 33787.7890625, 27386.048828125, 0.0, 0.0, 0.0, 193.0, 0.0, 1.0, 1.0, 0.0, 0.0, 1.0, 1.0, 256.0, 1.0, 1.608195521025496E9, 2020-12-17 14:43:41.025
179.0, 40266.0390625, 31346.46484375, 29421.623046875, 25004.515625, 27075.359375, 34774.39453125, 33776.94921875, 27375.65625, 0.0, 0.0, 0.0, 193.0, 0.0, 1.0, 1.0, 0.0, 0.0, 1.0, 1.0, 256.0, 1.0, 1.608195521025498E9, 2020-12-17 14:43:41.025
180.0, 40338.75, 31434.8671875, 29506.828125, 25096.73828125, 27122.74609375, 34851.8671875, 33840.31640625, 27450.466796875, 0.0, 0.0, 0.0, 193.0, 0.0, 1.0, 1.0, 0.0, 0.0, 1.0, 1.0, 256.0, 1.0, 1.608195521084352E9, 2020-12-17 14:43:41.084
181.0, 40377.5078125, 31476.619140625, 29545.49609375, 25139.431640625, 27142.21484375, 34887.921875, 33876.6171875, 27495.193359375, 0.0, 0.0, 0.0, 193.0, 0.0, 1.0, 1.0, 0.0, 0.0, 1.0, 1.0, 256.0, 1.0, 1.608195521084359E9, 2020-12-17 14:43:41.084
182.0, 40340.2265625, 31420.986328125, 29492.119140625, 25085.31640625, 27124.556640625, 34848.04296875, 33840.71875, 27457.84375, 0.0, 0.0, 0.0, 193.0, 0.0, 1.0, 1.0, 0.0, 0.0, 1.0, 1.0, 256.0, 1.0, 1.608195521084362E9, 2020-12-17 14:43:41.084
183.0, 40284.0546875, 31353.103515625, 29427.6796875, 25015.646484375, 27096.75, 34788.61328125, 33789.19921875, 27399.974609375, 0.0, 0.0, 0.0, 193.0, 0.0, 1.0, 1.0, 0.0, 0.0, 1.0, 1.0, 256.0, 1.0, 1.608195521084364E9, 2020-12-17 14:43:41.084
184.0, 40279.765625, 31349.818359375, 29427.658203125, 25016.541015625, 27107.904296875, 34789.3046875, 33788.9296875, 27404.51171875, 0.0, 0.0, 0.0, 193.0, 0.0, 1.0, 1.0, 0.0, 0.0, 1.0, 1.0, 256.0, 1.0, 1.608195521084367E9, 2020-12-17 14:43:41.084
185.0, 40350.28515625, 31439.494140625, 29513.935546875, 25107.892578125, 27157.501953125, 34868.25, 33857.90625, 27481.71484375, 0.0, 0.0, 0.0, 193.0, 0.0, 1.0, 1.0, 0.0, 0.0, 1.0, 1.0, 256.0, 1.0, 1.608195521084369E9, 2020-12-17 14:43:41.084
186.0, 40391.41015625, 31486.767578125, 29555.888671875, 25154.451171875, 27169.37109375, 34911.546875, 33890.96484375, 27518.103515625, 0.0, 0.0, 0.0, 193.0, 0.0, 1.0, 1.0, 0.0, 0.0, 1.0, 1.0, 256.0, 1.0, 1.608195521084372E9, 2020-12-17 14:43:41.084
187.0, 40345.58984375, 31425.61328125, 29496.76953125, 25090.837890625, 27127.505859375, 34854.70703125, 33845.63671875, 27464.66015625, 0.0, 0.0, 0.0, 193.0, 0.0, 1.0, 1.0, 0.0, 0.0, 1.0, 1.0, 256.0, 1.0, 1.608195521084374E9, 2020-12-17 14:43:41.084
188.0, 40275.6953125, 31341.927734375, 29416.99609375, 25005.65625, 27079.361328125, 34776.9453125, 33781.0625, 27392.0390625, 0.0, 0.0, 0.0, 193.0, 0.0, 1.0, 1.0, 0.0, 0.0, 1.0, 1.0, 256.0, 1.0, 1.608195521084376E9, 2020-12-17 14:43:41.084
189.0, 40265.03515625, 31339.06640625, 29417.576171875, 25006.908203125, 27092.794921875, 34779.625, 33780.75, 27388.083984375, 0.0, 0.0, 0.0, 193.0, 0.0, 1.0, 1.0, 0.0, 0.0, 1.0, 1.0, 256.0, 1.0, 1.608195521084379E9, 2020-12-17 14:43:41.084
190.0, 40338.640625, 31432.654296875, 29508.90625, 25102.439453125, 27145.701171875, 34863.87109375, 33847.42578125, 27462.828125, 0.0, 0.0, 0.0, 193.0, 0.0, 1.0, 1.0, 0.0, 0.0, 1.0, 1.0, 256.0, 1.0, 1.608195521084381E9, 2020-12-17 14:43:41.084
191.0, 40366.82421875, 31475.61328125, 29548.53515625, 25140.4140625, 27149.8359375, 34898.46875, 33881.2421875, 27507.263671875, 0.0, 0.0, 0.0, 193.0, 0.0, 1.0, 1.0, 0.0, 0.0, 1.0, 1.0, 256.0, 1.0, 1.608195521084384E9, 2020-12-17 14:43:41.084
192.0, 40317.26953125, 31414.83984375, 29488.1640625, 25075.259765625, 27100.572265625, 34837.65234375, 33834.08203125, 27455.048828125, 0.0, 0.0, 0.0, 193.0, 0.0, 1.0, 1.0, 0.0, 0.0, 1.0, 1.0, 256.0, 1.0, 1.608195521084386E9, 2020-12-17 14:43:41.084
193.0, 40264.41015625, 31342.8671875, 29421.064453125, 25005.208984375, 27070.7109375, 34777.3671875, 33786.47265625, 27400.310546875, 0.0, 0.0, 0.0, 193.0, 0.0, 1.0, 1.0, 0.0, 0.0, 1.0, 1.0, 256.0, 1.0, 1.608195521084396E9, 2020-12-17 14:43:41.084
194.0, 40267.5390625, 31345.4140625, 29423.208984375, 25006.70703125, 27083.8984375, 34777.92578125, 33784.90625, 27401.404296875, 0.0, 0.0, 0.0, 193.0, 0.0, 1.0, 1.0, 0.0, 0.0, 1.0, 1.0, 256.0, 1.0, 1.608195521084399E9, 2020-12-17 14:43:41.084
195.0, 40334.86328125, 31429.76953125, 29504.94921875, 25093.431640625, 27130.27734375, 34852.76171875, 33850.48828125, 27482.20703125, 0.0, 0.0, 0.0, 193.0, 0.0, 1.0, 1.0, 0.0, 0.0, 1.0, 1.0, 256.0, 1.0, 1.6081955211446E9, 2020-12-17 14:43:41.144
196.0, 40379.1640625, 31481.513671875, 29554.1015625, 25145.287109375, 27147.265625, 34896.34765625, 33890.0703125, 27528.20703125, 0.0, 0.0, 0.0, 193.0, 0.0, 1.0, 1.0, 0.0, 0.0, 1.0, 1.0, 256.0, 1.0, 1.608195521144607E9, 2020-12-17 14:43:41.144
197.0, 40334.97265625, 31429.166015625, 29502.267578125, 25088.447265625, 27107.14453125, 34844.71484375, 33849.68359375, 27481.0, 0.0, 0.0, 0.0, 193.0, 0.0, 1.0, 1.0, 0.0, 0.0, 1.0, 1.0, 256.0, 1.0, 1.608195521144609E9, 2020-12-17 14:43:41.144
198.0, 40264.90234375, 31344.275390625, 29420.392578125, 25000.939453125, 27063.423828125, 34762.953125, 33783.18359375, 27411.59765625, 0.0, 0.0, 0.0, 193.0, 0.0, 1.0, 1.0, 0.0, 0.0, 1.0, 1.0, 256.0, 1.0, 1.608195521144612E9, 2020-12-17 14:43:41.144
199.0, 40262.59765625, 31342.1953125, 29419.90234375, 25001.3203125, 27080.3671875, 34767.82421875, 33778.53515625, 27403.05859375, 0.0, 0.0, 0.0, 193.0, 0.0, 1.0, 1.0, 0.0, 0.0, 1.0, 1.0, 256.0, 1.0, 1.608195521144615E9, 2020-12-17 14:43:41.144
200.0, 40341.92578125, 31437.19140625, 29510.8515625, 25102.05859375, 27134.97265625, 34851.84375, 33844.85546875, 27479.703125, 0.0, 0.0, 0.0, 193.0, 0.0, 1.0, 1.0, 0.0, 0.0, 1.0, 1.0, 256.0, 1.0, 1.608195521144618E9, 2020-12-17 14:43:41.144
201.0, 40382.5390625, 31483.2578125, 29553.453125, 25149.689453125, 27160.185546875, 34895.1171875, 33881.15234375, 27525.591796875, 0.0, 0.0, 0.0, 193.0, 0.0, 1.0, 1.0, 0.0, 0.0, 1.0, 1.0, 256.0, 1.0, 1.608195521144621E9, 2020-12-17 14:43:41.144
202.0, 40331.5546875, 31422.88671875, 29496.388671875, 25083.484375, 27125.00390625, 34842.76953125, 33843.87109375, 27483.099609375, 0.0, 0.0, 0.0, 193.0, 0.0, 1.0, 1.0, 0.0, 0.0, 1.0, 1.0, 256.0, 1.0, 1.608195521144624E9, 2020-12-17 14:43:41.144
203.0, 40274.64453125, 31353.595703125, 29429.423828125, 25010.013671875, 27085.88671875, 34780.18359375, 33794.98828125, 27424.740234375, 0.0, 0.0, 0.0, 193.0, 0.0, 1.0, 1.0, 0.0, 0.0, 1.0, 1.0, 256.0, 1.0, 1.608195521144627E9, 2020-12-17 14:43:41.144
204.0, 40263.44921875, 31343.11328125, 29420.572265625, 25000.470703125, 27080.90234375, 34768.046875, 33784.90625, 27411.552734375, 0.0, 0.0, 0.0, 193.0, 0.0, 1.0, 1.0, 0.0, 0.0, 1.0, 1.0, 256.0, 1.0, 1.60819552114463E9, 2020-12-17 14:43:41.144
205.0, 40331.84375, 31434.509765625, 29507.408203125, 25092.759765625, 27131.060546875, 34844.66796875, 33848.54296875, 27481.201171875, 0.0, 0.0, 0.0, 193.0, 0.0, 1.0, 1.0, 0.0, 0.0, 1.0, 1.0, 256.0, 1.0, 1.608195521144633E9, 2020-12-17 14:43:41.144
206.0, 40380.125, 31489.0703125, 29559.15234375, 25148.3046875, 27162.53125, 34895.765625, 33890.921875, 27529.279296875, 0.0, 0.0, 0.0, 193.0, 0.0, 1.0, 1.0, 0.0, 0.0, 1.0, 1.0, 256.0, 1.0, 1.608195521144636E9, 2020-12-17 14:43:41.144
207.0, 40333.25390625, 31426.91015625, 29496.568359375, 25081.29296875, 27116.755859375, 34832.53125, 33835.53125, 27473.712890625, 0.0, 0.0, 0.0, 193.0, 0.0, 1.0, 1.0, 0.0, 0.0, 1.0, 1.0, 256.0, 1.0, 1.608195521144639E9, 2020-12-17 14:43:41.144
208.0, 40266.28515625, 31345.90625, 29419.611328125, 25000.515625, 27070.263671875, 34764.6484375, 33780.14453125, 27412.0, 0.0, 0.0, 0.0, 193.0, 0.0, 1.0, 1.0, 0.0, 0.0, 1.0, 1.0, 256.0, 1.0, 1.608195521144642E9, 2020-12-17 14:43:41.144
209.0, 40257.90625, 31341.79296875, 29418.58203125, 24999.8671875, 27076.3203125, 34769.87890625, 33785.51171875, 27411.955078125, 0.0, 0.0, 0.0, 193.0, 0.0, 1.0, 1.0, 0.0, 0.0, 1.0, 1.0, 256.0, 1.0, 1.608195521144645E9, 2020-12-17 14:43:41.144
210.0, 40333.65625, 31434.21875, 29509.017578125, 25099.443359375, 27131.931640625, 34860.78515625, 33855.1796875, 27491.21484375, 0.0, 0.0, 0.0, 193.0, 0.0, 1.0, 1.0, 0.0, 0.0, 1.0, 1.0, 256.0, 1.0, 1.608195521204677E9, 2020-12-17 14:43:41.204
211.0, 40374.6015625, 31485.1796875, 29554.16796875, 25146.29296875, 27150.439453125, 34900.83984375, 33891.859375, 27534.95703125, 0.0, 0.0, 0.0, 193.0, 0.0, 1.0, 1.0, 0.0, 0.0, 1.0, 1.0, 256.0, 1.0, 1.608195521204684E9, 2020-12-17 14:43:41.204
212.0, 40328.9140625, 31426.685546875, 29495.65234375, 25082.34375, 27112.84375, 34840.35546875, 33845.1015625, 27483.279296875, 0.0, 0.0, 0.0, 193.0, 0.0, 1.0, 1.0, 0.0, 0.0, 1.0, 1.0, 256.0, 1.0, 1.608195521204686E9, 2020-12-17 14:43:41.204
213.0, 40260.36328125, 31348.275390625, 29419.923828125, 24998.189453125, 27063.736328125, 34763.80078125, 33782.87109375, 27417.005859375, 0.0, 0.0, 0.0, 193.0, 0.0, 1.0, 1.0, 0.0, 0.0, 1.0, 1.0, 256.0, 1.0, 1.608195521204688E9, 2020-12-17 14:43:41.204
