%OpenBCI Raw EEG Data
%Number of channels = 8
%Sample Rate = 250 Hz
%Board = OpenBCI_GUI$BoardCytonSerial
Sample Index, EXG Channel 0, EXG Channel 1, EXG Channel 2, EXG Channel 3, EXG Channel 4, EXG Channel 5, EXG Channel 6, EXG Channel 7, Accel Channel 0, Accel Channel 1, Accel Channel 2, Other, Other, Other, Other, Other, Other, Other, Analog Channel 0, Analog Channel 1, Analog Channel 2, Timestamp, Timestamp (Formatted)
6.0, 40236.515625, 32227.75, 29230.26953125, 26956.91796875, 26932.0859375, 34838.30078125, 33798.25, 27911.158203125, 0.0, 0.0, 0.0, 193.0, 0.0, 1.0, 1.0, 0.0, 0.0, 1.0, 1.0, 256.0, 1.0, 1.608195588667714E9, 2020-12-17 14:44:48.667
7.0, 40165.61328125, 32135.97265625, 29141.890625, 26868.8515625, 26869.611328125, 34739.7265625, 33731.77734375, 27843.43359375, 0.0, 0.0, 0.0, 193.0, 0.0, 1.0, 1.0, 0.0, 0.0, 1.0, 1.0, 256.0, 1.0, 1.608195588667717E9, 2020-12-17 14:44:48.667
8.0, 40112.9765625, 32079.625, 29084.267578125, 26812.392578125, 26827.478515625, 34681.8359375, 33675.42578125, 27780.556640625, 0.0, 0.0, 0.0, 193.0, 0.0, 1.0, 1.0, 0.0, 0.0, 1.0, 1.0, 256.0, 1.0, 1.608195588667719E9, 2020-12-17 14:44:48.667
9.0, 40157.3203125, 32140.734375, 29146.025390625, 26876.09375, 26867.958984375, 34746.65625, 33724.22265625, 27824.58984375, 0.0, 0.0, 0.0, 193.0, 0.0, 1.0, 1.0, 0.0, 0.0, 1.0, 1.0, 256.0, 1.0, 1.608195588667722E9, 2020-12-17 14:44:48.667
10.0, 40251.15234375, 32246.681640625, 29250.85546875, 26982.220703125, 26941.78515625, 34841.5390625, 33818.0078125, 27920.92578125, 0.0, 0.0, 0.0, 193.0, 0.0, 1.0, 1.0, 0.0, 0.0, 1.0, 1.0, 256.0, 1.0, 1.608195588667725E9, 2020-12-17 14:44:48.667
11.0, 40238.97265625, 32230.5, 29236.998046875, 26967.580078125, 26929.11328125, 34832.01953125, 33814.90234375, 27914.958984375, 0.0, 0.0, 0.0, 193.0, 0.0, 1.0, 1.0, 0.0, 0.0, 1.0, 1.0, 256.0, 1.0, 1.608195588667727E9, 2020-12-17 14:44:48.667
12.0, 40166.640625, 32141.71875, 29148.1484375, 26876.318359375, 26864.873046875, 34751.08203125, 33731.5078125, 27822.4453125, 0.0, 0.0, 0.0, 193.0, 0.0, 1.0, 1.0, 0.0, 0.0, 1.0, 1.0, 256.0, 1.0, 1.60819558866773E9, 2020-12-17 14:44:48.667
13.0, 40119.3671875, 32082.84375, 29094.236328125, 26823.634765625, 26836.263671875, 34701.75390625, 33683.5859375, 27768.5546875, 0.0, 0.0, 0.0, 193.0, 0.0, 1.0, 1.0, 0.0, 0.0, 1.0, 1.0, 256.0, 1.0, 1.608195588667733E9, 2020-12-17 14:44:48.667
14.0, 40158.83984375, 32137.13671875, 29145.287109375, 26872.271484375, 26871.623046875, 34744.17578125, 33725.65234375, 27811.470703125, 0.0, 0.0, 0.0, 193.0, 0.0, 1.0, 1.0, 0.0, 0.0, 1.0, 1.0, 256.0, 1.0, 1.608195588667735E9, 2020-12-17 14:44:48.667
15.0, 40236.71484375, 32229.3359375, 29236.4375, 26965.412109375, 26938.232421875, 34830.65625, 33808.0625, 27898.642578125, 0.0, 0.0, 0.0, 193.0, 0.0, 1.0, 1.0, 0.0, 0.0, 1.0, 1.0, 256.0, 1.0, 1.608195588667738E9, 2020-12-17 14:44:48.667
16.0, 40234.8359375, 32227.369140625, 29239.6796875, 26964.875, 26935.99609375, 34841.8515625, 33816.48828125, 27900.541015625, 0.0, 0.0, 0.0, 193.0, 0.0, 1.0, 1.0, 0.0, 0.0, 1.0, 1.0, 256.0, 1.0, 1.608195588667741E9, 2020-12-17 14:44:48.667
17.0, 40181.10546875, 32160.76171875, 29172.04296875, 26899.853515625, 26871.892578125, 34767.3984375, 33750.88671875, 27830.982421875, 0.0, 0.0, 0.0, 193.0, 0.0, 1.0, 1.0, 0.0, 0.0, 1.0, 1.0, 256.0, 1.0, 1.608195588667743E9, 2020-12-17 14:44:48.667
18.0, 40122.72265625, 32094.48828125, 29105.994140625, 26827.970703125, 26828.462890625, 34711.765625, 33693.44140625, 27768.666015625, 0.0, 0.0, 0.0, 193.0, 0.0, 1.0, 1.0, 0.0, 0.0, 1.0, 1.0, 256.0, 1.0, 1.608195588667746E9, 2020-12-17 14:44:48.667
19.0, 40144.4921875, 32132.419921875, 29144.037109375, 26864.0234375, 26856.08984375, 34732.46484375, 33726.34375, 27800.94140625, 0.0, 0.0, 0.0, 193.0, 0.0, 1.0, 1.0, 0.0, 0.0, 1.0, 1.0, 256.0, 1.0, 1.608195588667749E9, 2020-12-17 14:44:48.667
20.0, 40226.56640625, 32220.798828125, 29231.341796875, 26954.9296875, 26918.3828125, 34820.375, 33806.20703125, 27875.486328125, 0.0, 0.0, 0.0, 193.0, 0.0, 1.0, 1.0, 0.0, 0.0, 1.0, 1.0, 256.0, 1.0, 1.608195588667751E9, 2020-12-17 14:44:48.667
21.0, 40235.5078125, 32224.6875, 29234.650390625, 26958.19140625, 26931.66015625, 34836.3984375, 33815.21484375, 27881.921875, 0.0, 0.0, 0.0, 193.0, 0.0, 1.0, 1.0, 0.0, 0.0, 1.0, 1.0, 256.0, 1.0, 1.608195588667754E9, 2020-12-17 14:44:48.667
22.0, 40174.890625, 32153.900390625, 29164.689453125, 26884.833984375, 26880.251953125, 34763.17578125, 33752.8984375, 27817.37109375, 0.0, 0.0, 0.0, 193.0, 0.0, 1.0, 1.0, 0.0, 0.0, 1.0, 1.0, 256.0, 1.0, 1.608195588667757E9, 2020-12-17 14:44:48.667
0.0, 0.0, 0.0, 0.0, 0.0, 0.0, 0.0, 0.0, 0.0, 0.0, 0.0, 0.0, 193.0, 0.0, 1.0, 1.0, 0.0, 0.0, 1.0, 1.0, 256.0, 1.0, 1.608195588738759E9, 2020-12-17 14:44:48.738
1.0, 40231.125, 32210.025390625, 29292.18359375, 26969.14453125, 26920.685546875, 34833.00390625, 33778.37890625, 27196.439453125, 0.0, 0.0, 0.0, 193.0, 0.0, 1.0, 1.0, 0.0, 0.0, 1.0, 1.0, 256.0, 1.0, 1.608195588801578E9, 2020-12-17 14:44:48.801
2.0, 40189.1953125, 32160.203125, 29235.58984375, 26929.359375, 26879.291015625, 34764.00390625, 33723.70703125, 27136.849609375, 0.0, 0.0, 0.0, 193.0, 0.0, 1.0, 1.0, 0.0, 0.0, 1.0, 1.0, 256.0, 1.0, 1.608195588801581E9, 2020-12-17 14:44:48.801
3.0, 40095.62890625, 32063.197265625, 29142.986328125, 26851.462890625, 26801.439453125, 34681.43359375, 33646.66015625, 27058.865234375, 0.0, 0.0, 0.0, 193.0, 0.0, 1.0, 1.0, 0.0, 0.0, 1.0, 1.0, 256.0, 1.0, 1.608195588801583E9, 2020-12-17 14:44:48.801
4.0, 40087.828125, 32058.255859375, 29142.896484375, 26859.21875, 26800.8359375, 34686.95703125, 33646.7265625, 27049.9453125, 0.0, 0.0, 0.0, 193.0, 0.0, 1.0, 1.0, 0.0, 0.0, 1.0, 1.0, 256.0, 1.0, 1.608195588801586E9, 2020-12-17 14:44:48.801
5.0, 40158.4375, 32143.259765625, 29229.0625, 26942.814453125, 26869.76953125, 34778.0625, 33727.171875, 27131.216796875, 0.0, 0.0, 0.0, 193.0, 0.0, 1.0, 1.0, 0.0, 0.0, 1.0, 1.0, 256.0, 1.0, 1.608195588801588E9, 2020-12-17 14:44:48.801
6.0, 40160.00390625, 32168.16015625, 29256.197265625, 26955.734375, 26878.150390625, 34789.88671875, 33763.0234375, 27164.87890625, 0.0, 0.0, 0.0, 193.0, 0.0, 1.0, 1.0, 0.0, 0.0, 1.0, 1.0, 256.0, 1.0, 1.608195588801591E9, 2020-12-17 14:44:48.801
7.0, 40091.8515625, 32092.72265625, 29179.6875, 26871.310546875, 26808.748046875, 34710.42578125, 33690.5390625, 27113.42578125, 0.0, 0.0, 0.0, 193.0, 0.0, 1.0, 1.0, 0.0, 0.0, 1.0, 1.0, 256.0, 1.0, 1.608195588801603E9, 2020-12-17 14:44:48.801
8.0, 40066.640625, 32047.39453125, 29128.6796875, 26816.013671875, 26789.794921875, 34658.63671875, 33637.453125, 27051.287109375, 0.0, 0.0, 0.0, 193.0, 0.0, 1.0, 1.0, 0.0, 0.0, 1.0, 1.0, 256.0, 1.0, 1.608195588801605E9, 2020-12-17 14:44:48.801
9.0, 40090.15625, 32068.76171875, 29159.50390625, 26839.50390625, 26811.900390625, 34692.38671875, 33655.109375, 27052.2265625, 0.0, 0.0, 0.0, 193.0, 0.0, 1.0, 1.0, 0.0, 0.0, 1.0, 1.0, 256.0, 1.0, 1.608195588801608E9, 2020-12-17 14:44:48.801
10.0, 40166.5078125, 32147.6640625, 29244.462890625, 26928.0390625, 26878.77734375, 34778.21875, 33725.31640625, 27126.9921875, 0.0, 0.0, 0.0, 193.0, 0.0, 1.0, 1.0, 0.0, 0.0, 1.0, 1.0, 256.0, 1.0, 1.60819558880161E9, 2020-12-17 14:44:48.801
11.0, 40216.328125, 32178.21875, 29256.599609375, 26945.205078125, 26879.423828125, 34776.05078125, 33746.70703125, 27172.25390625, 0.0, 0.0, 0.0, 193.0, 0.0, 1.0, 1.0, 0.0, 0.0, 1.0, 1.0, 256.0, 1.0, 1.608195588801613E9, 2020-12-17 14:44:48.801
12.0, 40118.85546875, 32099.697265625, 29174.79296875, 26852.22265625, 26802.400390625, 34708.14453125, 33669.97265625, 27092.50390625, 0.0, 0.0, 0.0, 193.0, 0.0, 1.0, 1.0, 0.0, 0.0, 1.0, 1.0, 256.0, 1.0, 1.608195588801615E9, 2020-12-17 14:44:48.801
13.0, 40104.70703125, 32070.259765625, 29140.52734375, 26811.654296875, 26794.912109375, 34686.75390625, 33651.37890625, 27063.3125, 0.0, 0.0, 0.0, 193.0, 0.0, 1.0, 1.0, 0.0, 0.0, 1.0, 1.0, 256.0, 1.0, 1.608195588801618E9, 2020-12-17 14:44:48.801
14.0, 40094.6484375, 32049.025390625, 29128.322265625, 26793.458984375, 26791.470703125, 34672.00390625, 33639.84375, 27039.955078125, 0.0, 0.0, 0.0, 193.0, 0.0, 1.0, 1.0, 0.0, 0.0, 1.0, 1.0, 256.0, 1.0, 1.60819558880162E9, 2020-12-17 14:44:48.801
15.0, 40111.1875, 32097.931640625, 29182.75, 26855.396484375, 26798.6015625, 34691.046875, 33663.87109375, 27076.3203125, 0.0, 0.0, 0.0, 193.0, 0.0, 1.0, 1.0, 0.0, 0.0, 1.0, 1.0, 256.0, 1.0, 1.608195588801623E9, 2020-12-17 14:44:48.801
16.0, 40236.15625, 32207.07421875, 29285.568359375, 26975.1796875, 26904.994140625, 34822.2734375, 33759.94140625, 27169.796875, 0.0, 0.0, 0.0, 193.0, 0.0, 1.0, 1.0, 0.0, 0.0, 1.0, 1.0, 256.0, 1.0, 1.608195588861847E9, 2020-12-17 14:44:48.861
17.0, 40167.19921875, 32138.029296875, 29225.865234375, 26909.5546875, 26843.638671875, 34751.12890625, 33708.6640625, 27111.279296875, 0.0, 0.0, 0.0, 193.0, 0.0, 1.0, 1.0, 0.0, 0.0, 1.0, 1.0, 256.0, 1.0, 1.608195588861852E9, 2020-12-17 14:44:48.861
18.0, 40097.640625, 32052.9375, 29164.779296875, 26847.953125, 26778.931640625, 34729.4921875, 33649.9921875, 27035.193359375, 0.0, 0.0, 0.0, 193.0, 0.0, 1.0, 1.0, 0.0, 0.0, 1.0, 1.0, 256.0, 1.0, 1.608195588861854E9, 2020-12-17 14:44:48.861
19.0, 40017.30859375, 32011.98828125, 29112.833984375, 26774.662109375, 26735.724609375, 34606.46875, 33631.1953125, 27019.748046875, 0.0, 0.0, 0.0, 193.0, 0.0, 1.0, 1.0, 0.0, 0.0, 1.0, 1.0, 256.0, 1.0, 1.608195588861857E9, 2020-12-17 14:44:48.861
20.0, 40112.6640625, 32147.796875, 29243.904296875, 26887.224609375, 26859.0390625, 34725.9609375, 33753.6796875, 27116.15234375, 0.0, 0.0, 0.0, 193.0, 0.0, 1.0, 1.0, 0.0, 0.0, 1.0, 1.0, 256.0, 1.0, 1.608195588861859E9, 2020-12-17 14:44:48.861
21.0, 40203.6796875, 32164.44921875, 29253.314453125, 26914.3828125, 26872.697265625, 34764.6953125, 33770.421875, 27169.21484375, 0.0, 0.0, 0.0, 193.0, 0.0, 1.0, 1.0, 0.0, 0.0, 1.0, 1.0, 256.0, 1.0, 1.608195588861861E9, 2020-12-17 14:44:48.861
22.0, 40136.53515625, 32072.60546875, 29197.501953125, 26859.330078125, 26817.0625, 34735.83984375, 33682.82421875, 27077.21484375, 0.0, 0.0, 0.0, 193.0, 0.0, 1.0, 1.0, 0.0, 0.0, 1.0, 1.0, 256.0, 1.0, 1.608195588861863E9, 2020-12-17 14:44:48.861
23.0, 40079.22265625, 32012.5703125, 29128.859375, 26818.76171875, 26750.677734375, 34657.921875, 33619.0546875, 27002.60546875, 0.0, 0.0, 0.0, 193.0, 0.0, 1.0, 1.0, 0.0, 0.0, 1.0, 1.0, 256.0, 1.0, 1.608195588861865E9, 2020-12-17 14:44:48.861
24.0, 40113.78125, 32073.208984375, 29146.427734375, 26880.296875, 26804.859375, 34686.95703125, 33657.43359375, 27035.9765625, 0.0, 0.0, 0.0, 193.0, 0.0, 1.0, 1.0, 0.0, 0.0, 1.0, 1.0, 256.0, 1.0, 1.608195588861867E9, 2020-12-17 14:44:48.861
25.0, 40199.74609375, 32169.544921875, 29247.30078125, 26978.845703125, 26892.8359375, 34776.16015625, 33749.03125, 27159.15625, 0.0, 0.0, 0.0, 193.0, 0.0, 1.0, 1.0, 0.0, 0.0, 1.0, 1.0, 256.0, 1.0, 1.608195588861869E9, 2020-12-17 14:44:48.861
26.0, 40213.40234375, 32180.609375, 29270.45703125, 26984.12109375, 26893.88671875, 34796.63671875, 33759.22265625, 27177.91015625, 0.0, 0.0, 0.0, 193.0, 0.0, 1.0, 1.0, 0.0, 0.0, 1.0, 1.0, 256.0, 1.0, 1.608195588861871E9, 2020-12-17 14:44:48.861
27.0, 40130.56640625, 32109.419921875, 29221.775390625, 26914.404296875, 26807.005859375, 34721.78125, 33697.5546875, 27087.09375, 0.0, 0.0, 0.0, 193.0, 0.0, 1.0, 1.0, 0.0, 0.0, 1.0, 1.0, 256.0, 1.0, 1.608195588861873E9, 2020-12-17 14:44:48.861
28.0, 40079.06640625, 32050.8125, 29135.966796875, 26828.775390625, 26769.3203125, 34676.96484375, 33619.90625, 27010.271484375, 0.0, 0.0, 0.0, 193.0, 0.0, 1.0, 1.0, 0.0, 0.0, 1.0, 1.0, 256.0, 1.0, 1.608195588861875E9, 2020-12-17 14:44:48.861
29.0, 40075.87109375, 32029.6015625, 29124.5, 26813.509765625, 26778.41796875, 34663.6640625, 33621.359375, 27021.470703125, 0.0, 0.0, 0.0, 193.0, 0.0, 1.0, 1.0, 0.0, 0.0, 1.0, 1.0, 256.0, 1.0, 1.608195588861877E9, 2020-12-17 14:44:48.861
30.0, 40160.80859375, 32122.541015625, 29213.349609375, 26903.564453125, 26853.072265625, 34751.3515625, 33711.7734375, 27128.400390625, 0.0, 0.0, 0.0, 193.0, 0.0, 1.0, 1.0, 0.0, 0.0, 1.0, 1.0, 256.0, 1.0, 1.608195588861885E9, 2020-12-17 14:44:48.861
31.0, 40258.0390625, 32213.064453125, 29323.9453125, 27011.255859375, 26918.16015625, 34874.5078125, 33806.18359375, 27189.689453125, 0.0, 0.0, 0.0, 193.0, 0.0, 1.0, 1.0, 0.0, 0.0, 1.0, 1.0, 256.0, 1.0, 1.608195588922205E9, 2020-12-17 14:44:48.922
32.0, 40169.68359375, 32126.474609375, 29218.400390625, 26907.677734375, 26841.181640625, 34743.125, 33731.796875, 27106.943359375, 0.0, 0.0, 0.0, 193.0, 0.0, 1.0, 1.0, 0.0, 0.0, 1.0, 1.0, 256.0, 1.0, 1.60819558892222E9, 2020-12-17 14:44:48.922
33.0, 40062.328125, 32023.767578125, 29111.669921875, 26805.171875, 26758.033203125, 34627.38671875, 33609.578125, 27008.640625, 0.0, 0.0, 0.0, 193.0, 0.0, 1.0, 1.0, 0.0, 0.0, 1.0, 1.0, 256.0, 1.0, 1.608195588922227E9, 2020-12-17 14:44:48.922
34.0, 40073.03125, 32057.228515625, 29171.439453125, 26838.4765625, 26780.943359375, 34659.41796875, 33660.18359375, 27026.140625, 0.0, 0.0, 0.0, 193.0, 0.0, 1.0, 1.0, 0.0, 0.0, 1.0, 1.0, 256.0, 1.0, 1.608195588922234E9, 2020-12-17 14:44:48.922
35.0, 40147.84375, 32105.93359375, 29227.765625, 26916.73046875, 26840.263671875, 34750.63671875, 33742.66015625, 27114.431640625, 0.0, 0.0, 0.0, 193.0, 0.0, 1.0, 1.0, 0.0, 0.0, 1.0, 1.0, 256.0, 1.0, 1.608195588922241E9, 2020-12-17 14:44:48.922
36.0, 40154.08203125, 32156.984375, 29254.498046875, 26937.560546875, 26847.998046875, 34750.76953125, 33731.15234375, 27135.732421875, 0.0, 0.0, 0.0, 193.0, 0.0, 1.0, 1.0, 0.0, 0.0, 1.0, 1.0, 256.0, 1.0, 1.608195588922249E9, 2020-12-17 14:44:48.922
37.0, 40114.25, 32069.275390625, 29185.8125, 26865.677734375, 26785.7265625, 34692.74609375, 33683.765625, 27069.212890625, 0.0, 0.0, 0.0, 193.0, 0.0, 1.0, 1.0, 0.0, 0.0, 1.0, 1.0, 256.0, 1.0, 1.608195588922257E9, 2020-12-17 14:44:48.922
38.0, 40067.69140625, 32010.916015625, 29148.193359375, 26823.544921875, 26752.82421875, 34675.35546875, 33610.65234375, 27006.404296875, 0.0, 0.0, 0.0, 193.0, 0.0, 1.0, 1.0, 0.0, 0.0, 1.0, 1.0, 256.0, 1.0, 1.608195588922266E9, 2020-12-17 14:44:48.922
39.0, 40097.8671875, 32032.59765625, 29139.498046875, 26828.91015625, 26784.49609375, 34685.94921875, 33636.9140625, 27029.13671875, 0.0, 0.0, 0.0, 193.0, 0.0, 1.0, 1.0, 0.0, 0.0, 1.0, 1.0, 256.0, 1.0, 1.608195588922274E9, 2020-12-17 14:44:48.922
40.0, 40205.890625, 32150.48046875, 29229.84375, 26920.26171875, 26885.080078125, 34758.81640625, 33723.26171875, 27135.75390625, 0.0, 0.0, 0.0, 193.0, 0.0, 1.0, 1.0, 0.0, 0.0, 1.0, 1.0, 256.0, 1.0, 1.608195588922283E9, 2020-12-17 14:44:48.922
41.0, 40212.796875, 32175.24609375, 29258.052734375, 26944.333984375, 26874.216796875, 34775.06640625, 33751.06640625, 27163.693359375, 0.0, 0.0, 0.0, 193.0, 0.0, 1.0, 1.0, 0.0, 0.0, 1.0, 1.0, 256.0, 1.0, 1.608195588922292E9, 2020-12-17 14:44:48.922
42.0, 40164.875, 32139.884765625, 29252.12890625, 26929.58203125, 26842.947265625, 34756.55859375, 33727.796875, 27115.078125, 0.0, 0.0, 0.0, 193.0, 0.0, 1.0, 1.0, 0.0, 0.0, 1.0, 1.0, 256.0, 1.0, 1.608195588922301E9, 2020-12-17 14:44:48.922
43.0, 40084.74609375, 32039.66015625, 29116.4765625, 26810.9609375, 26768.203125, 34656.33203125, 33629.671875, 27033.49609375, 0.0, 0.0, 0.0, 193.0, 0.0, 1.0, 1.0, 0.0, 0.0, 1.0, 1.0, 256.0, 1.0, 1.60819558892231E9, 2020-12-17 14:44:48.922
44.0, 40076.51953125, 32033.40234375, 29111.470703125, 26801.908203125, 26788.765625, 34644.77734375, 33631.4609375, 27040.08984375, 0.0, 0.0, 0.0, 193.0, 0.0, 1.0, 1.0, 0.0, 0.0, 1.0, 1.0, 256.0, 1.0, 1.608195588922319E9, 2020-12-17 14:44:48.922
45.0, 40183.71875, 32157.029296875, 29236.03515625, 26921.423828125, 26881.458984375, 34751.328125, 33743.890625, 27141.029296875, 0.0, 0.0, 0.0, 193.0, 0.0, 1.0, 1.0, 0.0, 0.0, 1.0, 1.0, 256.0, 1.0, 1.608195588922331E9, 2020-12-17 14:44:48.922
46.0, 40217.55859375, 32189.05859375, 29272.15625, 26973.369140625, 26892.634765625, 34803.85546875, 33770.7578125, 27172.701171875, 0.0, 0.0, 0.0, 193.0, 0.0, 1.0, 1.0, 0.0, 0.0, 1.0, 1.0, 256.0, 1.0, 1.608195588982406E9, 2020-12-17 14:44:48.982
47.0, 40153.09765625, 32119.880859375, 29214.443359375, 26932.533203125, 26810.87109375, 34728.23828125, 33726.74609375, 27118.208984375, 0.0, 0.0, 0.0, 193.0, 0.0, 1.0, 1.0, 0.0, 0.0, 1.0, 1.0, 256.0, 1.0, 1.608195588982412E9, 2020-12-17 14:44:48.982
48.0, 40076.1640625, 32020.951171875, 29109.97265625, 26823.90234375, 26759.798828125, 34646.296875, 33608.83984375, 27033.607421875, 0.0, 0.0, 0.0, 193.0, 0.0, 1.0, 1.0, 0.0, 0.0, 1.0, 1.0, 256.0, 1.0, 1.608195588982414E9, 2020-12-17 14:44:48.982
49.0, 40074.8671875, 32016.34765625, 29115.939453125, 26813.197265625, 26770.884765625, 34636.53125, 33607.3203125, 27021.4921875, 0.0, 0.0, 0.0, 193.0, 0.0, 1.0, 1.0, 0.0, 0.0, 1.0, 1.0, 256.0, 1.0, 1.608195588982417E9, 2020-12-17 14:44:48.982
50.0, 40200.97265625, 32180.23046875, 29266.232421875, 26959.66796875, 26876.072265625, 34790.625, 33738.34765625, 27147.869140625, 0.0, 0.0, 0.0, 193.0, 0.0, 1.0, 1.0, 0.0, 0.0, 1.0, 1.0, 256.0, 1.0, 1.608195588982419E9, 2020-12-17 14:44:48.982
51.0, 40242.79296875, 32207.431640625, 29310.087890625, 27003.87890625, 26900.79296875, 34833.44921875, 33766.375, 27190.11328125, 0.0, 0.0, 0.0, 193.0, 0.0, 1.0, 1.0, 0.0, 0.0, 1.0, 1.0, 256.0, 1.0, 1.608195588982422E9, 2020-12-17 14:44:48.982
52.0, 40158.640625, 32121.9140625, 29203.537109375, 26900.412109375, 26839.615234375, 34730.765625, 33710.36328125, 27121.359375, 0.0, 0.0, 0.0, 193.0, 0.0, 1.0, 1.0, 0.0, 0.0, 1.0, 1.0, 256.0, 1.0, 1.608195588982423E9, 2020-12-17 14:44:48.982
53.0, 40087.5390625, 32022.470703125, 29119.2265625, 26817.779296875, 26782.037109375, 34637.58203125, 33639.57421875, 27047.12890625, 0.0, 0.0, 0.0, 193.0, 0.0, 1.0, 1.0, 0.0, 0.0, 1.0, 1.0, 256.0, 1.0, 1.608195588982441E9, 2020-12-17 14:44:48.982
54.0, 40056.24609375, 32016.212890625, 29112.05078125, 26803.384765625, 26757.96484375, 34633.87109375, 33628.21875, 27032.17578125, 0.0, 0.0, 0.0, 193.0, 0.0, 1.0, 1.0, 0.0, 0.0, 1.0, 1.0, 256.0, 1.0, 1.608195588982442E9, 2020-12-17 14:44:48.982
55.0, 40193.48828125, 32178.44140625, 29263.3046875, 26944.3125, 26870.6171875, 34782.1953125, 33755.2890625, 27140.89453125, 0.0, 0.0, 0.0, 193.0, 0.0, 1.0, 1.0, 0.0, 0.0, 1.0, 1.0, 256.0, 1.0, 1.608195588982444E9, 2020-12-17 14:44:48.982
56.0, 40279.609375, 32220.708984375, 29302.3984375, 26998.470703125, 26925.3125, 34860.26953125, 33781.10546875, 27212.107421875, 0.0, 0.0, 0.0, 193.0, 0.0, 1.0, 1.0, 0.0, 0.0, 1.0, 1.0, 256.0, 1.0, 1.608195588982445E9, 2020-12-17 14:44:48.982
57.0, 40165.75, 32114.13671875, 29197.591796875, 26879.916015625, 26804.76953125, 34723.72265625, 33665.2109375, 27103.8359375, 0.0, 0.0, 0.0, 193.0, 0.0, 1.0, 1.0, 0.0, 0.0, 1.0, 1.0, 256.0, 1.0, 1.608195588982447E9, 2020-12-17 14:44:48.982
58.0, 40079.87109375, 32025.98046875, 29124.27734375, 26799.6953125, 26749.248046875, 34630.94140625, 33597.1953125, 27019.5703125, 0.0, 0.0, 0.0, 193.0, 0.0, 1.0, 1.0, 0.0, 0.0, 1.0, 1.0, 256.0, 1.0, 1.608195588982448E9, 2020-12-17 14:44:48.982
59.0, 40095.31640625, 32055.08203125, 29140.056640625, 26823.232421875, 26786.240234375, 34661.69921875, 33632.78125, 27052.29296875, 0.0, 0.0, 0.0, 193.0, 0.0, 1.0, 1.0, 0.0, 0.0, 1.0, 1.0, 256.0, 1.0, 1.608195588982449E9, 2020-12-17 14:44:48.982
60.0, 40181.9765625, 32145.853515625, 29232.728515625, 26922.00390625, 26853.00390625, 34755.44140625, 33719.59375, 27141.38671875, 0.0, 0.0, 0.0, 193.0, 0.0, 1.0, 1.0, 0.0, 0.0, 1.0, 1.0, 256.0, 1.0, 1.608195588982451E9, 2020-12-17 14:44:48.982
61.0, 40239.15234375, 32203.029296875, 29303.560546875, 26979.404296875, 26893.73046875, 34823.1015625, 33779.54296875, 27199.8359375, 0.0, 0.0, 0.0, 193.0, 0.0, 1.0, 1.0, 0.0, 0.0, 1.0, 1.0, 256.0, 1.0, 1.608195589041868E9, 2020-12-17 14:44:49.041
62.0, 40142.234375, 32097.818359375, 29180.8046875, 26873.9921875, 26797.482421875, 34708.63671875, 33674.66796875, 27120.578125, 0.0, 0.0, 0.0, 193.0, 0.0, 1.0, 1.0, 0.0, 0.0, 1.0, 1.0, 256.0, 1.0, 1.608195589041884E9, 2020-12-17 14:44:49.041
63.0, 40075.0234375, 32022.626953125, 29098.953125, 26820.998046875, 26734.205078125, 34617.95703125, 33605.0625, 27048.0234375, 0.0, 0.0, 0.0, 193.0, 0.0, 1.0, 1.0, 0.0, 0.0, 1.0, 1.0, 256.0, 1.0, 1.608195589041918E9, 2020-12-17 14:44:49.041
64.0, 40102.46875, 32057.630859375, 29142.560546875, 26848.087890625, 26770.974609375, 34650.03125, 33627.57421875, 27046.83984375, 0.0, 0.0, 0.0, 193.0, 0.0, 1.0, 1.0, 0.0, 0.0, 1.0, 1.0, 256.0, 1.0, 1.608195589041926E9, 2020-12-17 14:44:49.041
65.0, 40176.453125, 32135.212890625, 29228.212890625, 26937.494140625, 26843.103515625, 34750.546875, 33746.52734375, 27150.685546875, 0.0, 0.0, 0.0, 193.0, 0.0, 1.0, 1.0, 0.0, 0.0, 1.0, 1.0, 256.0, 1.0, 1.608195589041933E9, 2020-12-17 14:44:49.041
66.0, 40219.81640625, 32211.076171875, 29289.0546875, 26989.037109375, 26869.65625, 34823.19140625, 33787.8125, 27199.748046875, 0.0, 0.0, 0.0, 193.0, 0.0, 1.0, 1.0, 0.0, 0.0, 1.0, 1.0, 256.0, 1.0, 1.60819558904194E9, 2020-12-17 14:44:49.041
67.0, 40158.55078125, 32130.900390625, 29202.28515625, 26895.25, 26810.603515625, 34740.4453125, 33685.5546875, 27123.28125, 0.0, 0.0, 0.0, 193.0, 0.0, 1.0, 1.0, 0.0, 0.0, 1.0, 1.0, 256.0, 1.0, 1.608195589041947E9, 2020-12-17 14:44:49.041
68.0, 40099.2734375, 32044.017578125, 29122.0859375, 26808.14453125, 26766.056640625, 34657.47265625, 33594.53515625, 27034.45703125, 0.0, 0.0, 0.0, 193.0, 0.0, 1.0, 1.0, 0.0, 0.0, 1.0, 1.0, 256.0, 1.0, 1.608195589041954E9, 2020-12-17 14:44:49.041
69.0, 40071.58203125, 32020.861328125, 29105.5234375, 26787.537109375, 26745.314453125, 34631.078125, 33597.93359375, 27019.390625, 0.0, 0.0, 0.0, 193.0, 0.0, 1.0, 1.0, 0.0, 0.0, 1.0, 1.0, 256.0, 1.0, 1.608195589041961E9, 2020-12-17 14:44:49.041
70.0, 40188.34375, 32143.21484375, 29234.404296875, 26923.078125, 26840.734375, 34768.4296875, 33728.625, 27150.8203125, 0.0, 0.0, 0.0, 193.0, 0.0, 1.0, 1.0, 0.0, 0.0, 1.0, 1.0, 256.0, 1.0, 1.608195589041968E9, 2020-12-17 14:44:49.041
71.0, 40226.859375, 32190.109375, 29280.78515625, 26966.751953125, 26870.595703125, 34814.5625, 33766.8671875, 27196.9765625, 0.0, 0.0, 0.0, 193.0, 0.0, 1.0, 1.0, 0.0, 0.0, 1.0, 1.0, 256.0, 1.0, 1.608195589041974E9, 2020-12-17 14:44:49.041
72.0, 40175.1796875, 32152.55859375, 29228.435546875, 26896.814453125, 26813.978515625, 34748.19921875, 33703.94921875, 27138.951171875, 0.0, 0.0, 0.0, 193.0, 0.0, 1.0, 1.0, 0.0, 0.0, 1.0, 1.0, 256.0, 1.0, 1.608195589041982E9, 2020-12-17 14:44:49.041
73.0, 40105.80078125, 32043.861328125, 29121.259765625, 26805.708984375, 26760.22265625, 34657.1171875, 33619.16796875, 27054.953125, 0.0, 0.0, 0.0, 193.0, 0.0, 1.0, 1.0, 0.0, 0.0, 1.0, 1.0, 256.0, 1.0, 1.608195589041989E9, 2020-12-17 14:44:49.041
74.0, 40097.0390625, 32045.11328125, 29130.78125, 26812.548828125, 26766.861328125, 34659.0390625, 33628.6015625, 27052.78515625, 0.0, 0.0, 0.0, 193.0, 0.0, 1.0, 1.0, 0.0, 0.0, 1.0, 1.0, 256.0, 1.0, 1.608195589041996E9, 2020-12-17 14:44:49.041
75.0, 40187.05078125, 32160.873046875, 29233.17578125, 26907.431640625, 26843.6171875, 34751.73046875, 33723.1484375, 27158.017578125, 0.0, 0.0, 0.0, 193.0, 0.0, 1.0, 1.0, 0.0, 0.0, 1.0, 1.0, 256.0, 1.0, 1.608195589042003E9, 2020-12-17 14:44:49.042
76.0, 40241.25390625, 32206.984375, 29279.3984375, 26954.28125, 26872.384765625, 34795.47265625, 33767.2265625, 27216.33203125, 0.0, 0.0, 0.0, 193.0, 0.0, 1.0, 1.0, 0.0, 0.0, 1.0, 1.0, 256.0, 1.0, 1.608195589101598E9, 2020-12-17 14:44:49.101
77.0, 40190.6015625, 32132.15234375, 29199.69140625, 26883.068359375, 26813.6875, 34728.91015625, 33706.18359375, 27155.8046875, 0.0, 0.0, 0.0, 193.0, 0.0, 1.0, 1.0, 0.0, 0.0, 1.0, 1.0, 256.0, 1.0, 1.60819558910161E9, 2020-12-17 14:44:49.101
78.0, 40087.5859375, 32029.802734375, 29104.25, 26783.267578125, 26743.951171875, 34641.3125, 33617.42578125, 27045.6328125, 0.0, 0.0, 0.0, 193.0, 0.0, 1.0, 1.0, 0.0, 0.0, 1.0, 1.0, 256.0, 1.0, 1.608195589101613E9, 2020-12-17 14:44:49.101
79.0, 40068.7421875, 32018.4921875, 29100.6953125, 26774.595703125, 26743.99609375, 34636.91015625, 33616.77734375, 27038.76953125, 0.0, 0.0, 0.0, 193.0, 0.0, 1.0, 1.0, 0.0, 0.0, 1.0, 1.0, 256.0, 1.0, 1.608195589101615E9, 2020-12-17 14:44:49.101
80.0, 40205.95703125, 32166.796875, 29248.888671875, 26926.2734375, 26853.294921875, 34786.3984375, 33738.83984375, 27168.74609375, 0.0, 0.0, 0.0, 193.0, 0.0, 1.0, 1.0, 0.0, 0.0, 1.0, 1.0, 256.0, 1.0, 1.608195589101617E9, 2020-12-17 14:44:49.101
81.0, 40269.125, 32243.083984375, 29309.572265625, 26997.46484375, 26894.66796875, 34832.51171875, 33786.44921875, 27237.72265625, 0.0, 0.0, 0.0, 193.0, 0.0, 1.0, 1.0, 0.0, 0.0, 1.0, 1.0, 256.0, 1.0, 1.608195589101619E9, 2020-12-17 14:44:49.101
82.0, 40184.8359375, 32140.443359375, 29214.533203125, 26893.931640625, 26817.30859375, 34733.08984375, 33695.5, 27149.25390625, 0.0, 0.0, 0.0, 193.0, 0.0, 1.0, 1.0, 0.0, 0.0, 1.0, 1.0, 256.0, 1.0, 1.608195589101621E9, 2020-12-17 14:44:49.101
83.0, 40088.6328125, 32020.52734375, 29107.46875, 26757.919921875, 26730.00390625, 34639.90625, 33610.6953125, 27049.87890625, 0.0, 0.0, 0.0, 193.0, 0.0, 1.0, 1.0, 0.0, 0.0, 1.0, 1.0, 256.0, 1.0, 1.608195589101624E9, 2020-12-17 14:44:49.101
84.0, 40101.75390625, 32027.92578125, 29137.12890625, 26771.01953125, 26753.025390625, 34661.4765625, 33641.56640625, 27075.515625, 0.0, 0.0, 0.0, 193.0, 0.0, 1.0, 1.0, 0.0, 0.0, 1.0, 1.0, 256.0, 1.0, 1.608195589101626E9, 2020-12-17 14:44:49.101
85.0, 40161.6796875, 32155.017578125, 29226.783203125, 26896.166015625, 26808.525390625, 34734.8984375, 33720.80078125, 27160.318359375, 0.0, 0.0, 0.0, 193.0, 0.0, 1.0, 1.0, 0.0, 0.0, 1.0, 1.0, 256.0, 1.0, 1.608195589101628E9, 2020-12-17 14:44:49.101
86.0, 40234.32421875, 32220.328125, 29294.216796875, 27004.21484375, 26853.853515625, 34802.1328125, 33783.296875, 27225.02734375, 0.0, 0.0, 0.0, 193.0, 0.0, 1.0, 1.0, 0.0, 0.0, 1.0, 1.0, 256.0, 1.0, 1.60819558910163E9, 2020-12-17 14:44:49.101
87.0, 40198.6953125, 32134.72265625, 29220.79296875, 26934.701171875, 26819.052734375, 34755.21875, 33727.08203125, 27166.599609375, 0.0, 0.0, 0.0, 193.0, 0.0, 1.0, 1.0, 0.0, 0.0, 1.0, 1.0, 256.0, 1.0, 1.608195589101633E9, 2020-12-17 14:44:49.101
88.0, 40083.5625, 32026.40625, 29091.822265625, 26788.38671875, 26733.490234375, 34625.5546875, 33600.234375, 27056.94140625, 0.0, 0.0, 0.0, 193.0, 0.0, 1.0, 1.0, 0.0, 0.0, 1.0, 1.0, 256.0, 1.0, 1.608195589101635E9, 2020-12-17 14:44:49.101
89.0, 40079.08984375, 32022.873046875, 29094.28125, 26781.14453125, 26729.802734375, 34621.15234375, 33592.30078125, 27048.134765625, 0.0, 0.0, 0.0, 193.0, 0.0, 1.0, 1.0, 0.0, 0.0, 1.0, 1.0, 256.0, 1.0, 1.608195589101637E9, 2020-12-17 14:44:49.101
90.0, 40211.58984375, 32179.91796875, 29250.744140625, 26936.265625, 26843.3046875, 34786.30859375, 33736.3359375, 27190.6953125, 0.0, 0.0, 0.0, 193.0, 0.0, 1.0, 1.0, 0.0, 0.0, 1.0, 1.0, 256.0, 1.0, 1.60819558910164E9, 2020-12-17 14:44:49.101
91.0, 40258.171875, 32237.78515625, 29305.326171875, 26991.541015625, 26882.755859375, 34835.70703125, 33784.86328125, 27248.80859375, 0.0, 0.0, 0.0, 193.0, 0.0, 1.0, 1.0, 0.0, 0.0, 1.0, 1.0, 256.0, 1.0, 1.608195589161766E9, 2020-12-17 14:44:49.161
92.0, 40189.57421875, 32143.484375, 29212.365234375, 26896.009765625, 26807.4296875, 34743.99609375, 33706.20703125, 27165.59375, 0.0, 0.0, 0.0, 193.0, 0.0, 1.0, 1.0, 0.0, 0.0, 1.0, 1.0, 256.0, 1.0, 1.608195589161772E9, 2020-12-17 14:44:49.161
93.0, 40103.921875, 32035.16796875, 29106.08203125, 26780.787109375, 26736.150390625, 34630.62890625, 33619.83984375, 27070.330078125, 0.0, 0.0, 0.0, 193.0, 0.0, 1.0, 1.0, 0.0, 0.0, 1.0, 1.0, 256.0, 1.0, 1.608195589161774E9, 2020-12-17 14:44:49.161
94.0, 40101.015625, 32036.486328125, 29111.3125, 26781.703125, 26739.703125, 34633.04296875, 33636.421875, 27070.0859375, 0.0, 0.0, 0.0, 193.0, 0.0, 1.0, 1.0, 0.0, 0.0, 1.0, 1.0, 256.0, 1.0, 1.608195589161776E9, 2020-12-17 14:44:49.161
95.0, 40195.5, 32147.552734375, 29219.2265625, 26895.09375, 26824.416015625, 34765.453125, 33729.47265625, 27181.91015625, 0.0, 0.0, 0.0, 193.0, 0.0, 1.0, 1.0, 0.0, 0.0, 1.0, 1.0, 256.0, 1.0, 1.608195589161778E9, 2020-12-17 14:44:49.161
96.0, 40267.47265625, 32232.578125, 29299.0234375, 26961.767578125, 26878.552734375, 34840.6015625, 33777.75390625, 27248.65234375, 0.0, 0.0, 0.0, 193.0, 0.0, 1.0, 1.0, 0.0, 0.0, 1.0, 1.0, 256.0, 1.0, 1.608195589161781E9, 2020-12-17 14:44:49.161
97.0, 40204.9296875, 32146.5234375, 29210.912109375, 26883.91796875, 26821.556640625, 34745.49609375, 33697.69140625, 27173.41796875, 0.0, 0.0, 0.0, 193.0, 0.0, 1.0, 1.0, 0.0, 0.0, 1.0, 1.0, 256.0, 1.0, 1.608195589161799E9, 2020-12-17 14:44:49.161
98.0, 40093.91015625, 32030.16015625, 29100.80859375, 26783.8046875, 26734.8984375, 34635.97265625, 33610.44921875, 27077.3046875, 0.0, 0.0, 0.0, 193.0, 0.0, 1.0, 1.0, 0.0, 0.0, 1.0, 1.0, 256.0, 1.0, 1.6081955891618E9, 2020-12-17 14:44:49.161
99.0, 40082.80078125, 32023.96875, 29099.82421875, 26789.19140625, 26732.662109375, 34631.546875, 33615.63671875, 27075.806640625, 0.0, 0.0, 0.0, 193.0, 0.0, 1.0, 1.0, 0.0, 0.0, 1.0, 1.0, 256.0, 1.0, 1.608195589161802E9, 2020-12-17 14:44:49.161
100.0, 40190.24609375, 32157.9453125, 29227.609375, 26911.208984375, 26831.345703125, 34743.41796875, 33724.01953125, 27188.056640625, 0.0, 0.0, 0.0, 193.0, 0.0, 1.0, 1.0, 0.0, 0.0, 1.0, 1.0, 256.0, 1.0, 1.608195589161813E9, 2020-12-17 14:44:49.161
101.0, 40248.828125, 32220.10546875, 29281.96875, 26962.841796875, 26867.109375, 34800.8828125, 33766.578125, 27247.37890625, 0.0, 0.0, 0.0, 193.0, 0.0, 1.0, 1.0, 0.0, 0.0, 1.0, 1.0, 256.0, 1.0, 1.608195589161814E9, 2020-12-17 14:44:49.161
102.0, 40184.48046875, 32130.140625, 29192.607421875, 26867.376953125, 26797.974609375, 34719.6796875, 33682.82421875, 27161.48046875, 0.0, 0.0, 0.0, 193.0, 0.0, 1.0, 1.0, 0.0, 0.0, 1.0, 1.0, 256.0, 1.0, 1.608195589161816E9, 2020-12-17 14:44:49.161
103.0, 40106.16015625, 32033.37890625, 29100.0703125, 26767.642578125, 26738.138671875, 34635.8828125, 33607.14453125, 27075.203125, 0.0, 0.0, 0.0, 193.0, 0.0, 1.0, 1.0, 0.0, 0.0, 1.0, 1.0, 256.0, 1.0, 1.608195589161817E9, 2020-12-17 14:44:49.161
104.0, 40095.36328125, 32034.02734375, 29104.00390625, 26752.646484375, 26734.0703125, 34631.1640625, 33605.7109375, 27076.947265625, 0.0, 0.0, 0.0, 193.0, 0.0, 1.0, 1.0, 0.0, 0.0, 1.0, 1.0, 256.0, 1.0, 1.608195589161819E9, 2020-12-17 14:44:49.161
105.0, 40203.3671875, 32169.8359375, 29237.154296875, 26890.109375, 26830.048828125, 34750.8828125, 33721.5390625, 27202.98828125, 0.0, 0.0, 0.0, 193.0, 0.0, 1.0, 1.0, 0.0, 0.0, 1.0, 1.0, 256.0, 1.0, 1.60819558916182E9, 2020-12-17 14:44:49.161
106.0, 40254.26171875, 32224.263671875, 29290.955078125, 26953.9453125, 26868.6953125, 34804.2578125, 33776.03125, 27252.83203125, 0.0, 0.0, 0.0, 193.0, 0.0, 1.0, 1.0, 0.0, 0.0, 1.0, 1.0, 256.0, 1.0, 1.608195589222093E9, 2020-12-17 14:44:49.222
107.0, 40176.7890625, 32128.53125, 29194.3046875, 26847.775390625, 26801.86328125, 34713.12890625, 33690.203125, 27163.0234375, 0.0, 0.0, 0.0, 193.0, 0.0, 1.0, 1.0, 0.0, 0.0, 1.0, 1.0, 256.0, 1.0, 1.608195589222099E9, 2020-12-17 14:44:49.222
108.0, 40099.33984375, 32029.958984375, 29096.5390625, 26764.537109375, 26734.83203125, 34626.71875, 33594.55859375, 27066.419921875, 0.0, 0.0, 0.0, 193.0, 0.0, 1.0, 1.0, 0.0, 0.0, 1.0, 1.0, 256.0, 1.0, 1.608195589222101E9, 2020-12-17 14:44:49.222
109.0, 40097.375, 32038.072265625, 29103.244140625, 26778.73046875, 26740.12890625, 34623.8125, 33591.38671875, 27059.646484375, 0.0, 0.0, 0.0, 193.0, 0.0, 1.0, 1.0, 0.0, 0.0, 1.0, 1.0, 256.0, 1.0, 1.608195589222103E9, 2020-12-17 14:44:49.222
110.0, 40209.53515625, 32173.189453125, 29235.833984375, 26917.66796875, 26840.62109375, 34754.97265625, 33711.75, 27175.875, 0.0, 0.0, 0.0, 193.0, 0.0, 1.0, 1.0, 0.0, 0.0, 1.0, 1.0, 256.0, 1.0, 1.608195589222105E9, 2020-12-17 14:44:49.222
111.0, 40273.21484375, 32236.7578125, 29298.798828125, 26978.30859375, 26891.583984375, 34820.9765625, 33774.71484375, 27245.478515625, 0.0, 0.0, 0.0, 193.0, 0.0, 1.0, 1.0, 0.0, 0.0, 1.0, 1.0, 256.0, 1.0, 1.608195589222107E9, 2020-12-17 14:44:49.222
112.0, 40208.41796875, 32153.228515625, 29218.064453125, 26888.38671875, 26844.01953125, 34746.74609375, 33713.046875, 27178.8046875, 0.0, 0.0, 0.0, 193.0, 0.0, 1.0, 1.0, 0.0, 0.0, 1.0, 1.0, 256.0, 1.0, 1.608195589222109E9, 2020-12-17 14:44:49.222
113.0, 40110.7421875, 32042.185546875, 29113.16796875, 26778.23828125, 26772.873046875, 34655.26171875, 33630.03125, 27091.85546875, 0.0, 0.0, 0.0, 193.0, 0.0, 1.0, 1.0, 0.0, 0.0, 1.0, 1.0, 256.0, 1.0, 1.608195589222112E9, 2020-12-17 14:44:49.222
114.0, 40106.1796875, 32045.560546875, 29120.58984375, 26781.994140625, 26775.310546875, 34671.64453125, 33643.26171875, 27120.890625, 0.0, 0.0, 0.0, 193.0, 0.0, 1.0, 1.0, 0.0, 0.0, 1.0, 1.0, 256.0, 1.0, 1.608195589222114E9, 2020-12-17 14:44:49.222
115.0, 40220.53125, 32190.646484375, 29264.869140625, 26925.625, 26862.728515625, 34807.07421875, 33771.78515625, 27259.26953125, 0.0, 0.0, 0.0, 193.0, 0.0, 1.0, 1.0, 0.0, 0.0, 1.0, 1.0, 256.0, 1.0, 1.608195589222116E9, 2020-12-17 14:44:49.222
116.0, 40274.6015625, 32244.044921875, 29315.943359375, 26993.306640625, 26883.8046875, 34862.03515625, 33812.17578125, 27314.92578125, 0.0, 0.0, 0.0, 193.0, 0.0, 1.0, 1.0, 0.0, 0.0, 1.0, 1.0, 256.0, 1.0, 1.608195589222118E9, 2020-12-17 14:44:49.222
117.0, 40194.984375, 32149.1171875, 29219.787109375, 26888.25390625, 26807.20703125, 34765.23046875, 33733.453125, 27241.3671875, 0.0, 0.0, 0.0, 193.0, 0.0, 1.0, 1.0, 0.0, 0.0, 1.0, 1.0, 256.0, 1.0, 1.60819558922212E9, 2020-12-17 14:44:49.222
118.0, 40085.125, 32024.349609375, 29092.8515625, 26749.806640625, 26707.740234375, 34631.58984375, 33618.02734375, 27125.986328125, 0.0, 0.0, 0.0, 193.0, 0.0, 1.0, 1.0, 0.0, 0.0, 1.0, 1.0, 256.0, 1.0, 1.608195589222122E9, 2020-12-17 14:44:49.222
119.0, 40063.17578125, 32012.97265625, 29077.40625, 26733.244140625, 26677.56640625, 34591.671875, 33587.046875, 27102.00390625, 0.0, 0.0, 0.0, 193.0, 0.0, 1.0, 1.0, 0.0, 0.0, 1.0, 1.0, 256.0, 1.0, 1.608195589222124E9, 2020-12-17 14:44:49.222
120.0, 40178.17578125, 32151.57421875, 29210.17578125, 26864.873046875, 26776.40625, 34712.14453125, 33691.69921875, 27216.578125, 0.0, 0.0, 0.0, 193.0, 0.0, 1.0, 1.0, 0.0, 0.0, 1.0, 1.0, 256.0, 1.0, 1.608195589222127E9, 2020-12-17 14:44:49.222
121.0, 40254.73046875, 32226.54296875, 29280.583984375, 26935.59375, 26838.609375, 34783.0, 33751.6015625, 27278.58203125, 0.0, 0.0, 0.0, 193.0, 0.0, 1.0, 1.0, 0.0, 0.0, 1.0, 1.0, 256.0, 1.0, 1.608195589282394E9, 2020-12-17 14:44:49.282
122.0, 40180.14453125, 32118.13671875, 29173.517578125, 26828.640625, 26765.85546875, 34680.16015625, 33665.37109375, 27179.853515625, 0.0, 0.0, 0.0, 193.0, 0.0, 1.0, 1.0, 0.0, 0.0, 1.0, 1.0, 256.0, 1.0, 1.608195589282409E9, 2020-12-17 14:44:49.282
123.0, 40081.50390625, 32009.08203125, 29068.7109375, 26706.33203125, 26694.150390625, 34573.4765625, 33575.89453125, 27079.96484375, 0.0, 0.0, 0.0, 193.0, 0.0, 1.0, 1.0, 0.0, 0.0, 1.0, 1.0, 256.0, 1.0, 1.608195589282434E9, 2020-12-17 14:44:49.282
124.0, 40080.69921875, 32022.494140625, 29084.849609375, 26740.396484375, 26714.6484375, 34591.24609375, 33576.609375, 27079.3828125, 0.0, 0.0, 0.0, 193.0, 0.0, 1.0, 1.0, 0.0, 0.0, 1.0, 1.0, 256.0, 1.0, 1.608195589282443E9, 2020-12-17 14:44:49.282
125.0, 40200.88671875, 32168.115234375, 29230.671875, 26907.767578125, 26823.947265625, 34739.4609375, 33701.265625, 27209.134765625, 0.0, 0.0, 0.0, 193.0, 0.0, 1.0, 1.0, 0.0, 0.0, 1.0, 1.0, 256.0, 1.0, 1.608195589282452E9, 2020-12-17 14:44:49.282
126.0, 40268.96875, 32244.423828125, 29305.013671875, 26976.07421875, 26875.87109375, 34821.4453125, 33778.26953125, 27286.673828125, 0.0, 0.0, 0.0, 193.0, 0.0, 1.0, 1.0, 0.0, 0.0, 1.0, 1.0, 256.0, 1.0, 1.608195589282461E9, 2020-12-17 14:44:49.282
127.0, 40191.8984375, 32148.84765625, 29207.671875, 26860.515625, 26801.931640625, 34735.83984375, 33699.3671875, 27203.501953125, 0.0, 0.0, 0.0, 193.0, 0.0, 1.0, 1.0, 0.0, 0.0, 1.0, 1.0, 256.0, 1.0, 1.608195589282469E9, 2020-12-17 14:44:49.282
128.0, 40097.8203125, 32027.298828125, 29090.2578125, 26728.013671875, 26731.166015625, 34625.7578125, 33606.02734375, 27099.34375, 0.0, 0.0, 0.0, 193.0, 0.0, 1.0, 1.0, 0.0, 0.0, 1.0, 1.0, 256.0, 1.0, 1.608195589282482E9, 2020-12-17 14:44:49.282
129.0, 40107.34375, 32035.8828125, 29101.92578125, 26751.326171875, 26753.091796875, 34634.65234375, 33614.16015625, 27100.884765625, 0.0, 0.0, 0.0, 193.0, 0.0, 1.0, 1.0, 0.0, 0.0, 1.0, 1.0, 256.0, 1.0, 1.608195589282489E9, 2020-12-17 14:44:49.282
130.0, 40230.76953125, 32179.984375, 29241.01953125, 26915.767578125, 26853.697265625, 34768.96484375, 33733.33984375, 27234.326171875, 0.0, 0.0, 0.0, 193.0, 0.0, 1.0, 1.0, 0.0, 0.0, 1.0, 1.0, 256.0, 1.0, 1.608195589282495E9, 2020-12-17 14:44:49.282
131.0, 40284.19140625, 32246.01171875, 29301.056640625, 26975.380859375, 26890.33203125, 34830.609375, 33780.546875, 27295.48046875, 0.0, 0.0, 0.0, 193.0, 0.0, 1.0, 1.0, 0.0, 0.0, 1.0, 1.0, 256.0, 1.0, 1.608195589282502E9, 2020-12-17 14:44:49.282
132.0, 40183.96484375, 32136.130859375, 29191.734375, 26853.966796875, 26797.818359375, 34719.9921875, 33684.58984375, 27194.205078125, 0.0, 0.0, 0.0, 193.0, 0.0, 1.0, 1.0, 0.0, 0.0, 1.0, 1.0, 256.0, 1.0, 1.608195589282509E9, 2020-12-17 14:44:49.282
133.0, 40086.53515625, 32020.056640625, 29081.16015625, 26758.724609375, 26725.5546875, 34618.53515625, 33585.52734375, 27097.220703125, 0.0, 0.0, 0.0, 193.0, 0.0, 1.0, 1.0, 0.0, 0.0, 1.0, 1.0, 256.0, 1.0, 1.608195589282517E9, 2020-12-17 14:44:49.282
134.0, 40091.3828125, 32032.91015625, 29099.0859375, 26775.689453125, 26739.189453125, 34639.5703125, 33598.1796875, 27102.451171875, 0.0, 0.0, 0.0, 193.0, 0.0, 1.0, 1.0, 0.0, 0.0, 1.0, 1.0, 256.0, 1.0, 1.608195589282524E9, 2020-12-17 14:44:49.282
135.0, 40214.4296875, 32183.001953125, 29244.955078125, 26917.578125, 26841.26953125, 34774.59765625, 33723.6171875, 27225.048828125, 0.0, 0.0, 0.0, 193.0, 0.0, 1.0, 1.0, 0.0, 0.0, 1.0, 1.0, 256.0, 1.0, 1.608195589282531E9, 2020-12-17 14:44:49.282
136.0, 40282.37890625, 32249.990234375, 29307.517578125, 26984.0078125, 26892.03125, 34842.546875, 33784.125, 27293.916015625, 0.0, 0.0, 0.0, 193.0, 0.0, 1.0, 1.0, 0.0, 0.0, 1.0, 1.0, 256.0, 1.0, 1.608195589341925E9, 2020-12-17 14:44:49.341
137.0, 40201.53515625, 32147.23828125, 29205.75, 26874.75390625, 26811.990234375, 34738.51953125, 33703.14453125, 27211.080078125, 0.0, 0.0, 0.0, 193.0, 0.0, 1.0, 1.0, 0.0, 0.0, 1.0, 1.0, 256.0, 1.0, 1.608195589341932E9, 2020-12-17 14:44:49.341
138.0, 40093.84375, 32023.58984375, 29084.736328125, 26741.916015625, 26728.6171875, 34616.61328125, 33599.4765625, 27106.71875, 0.0, 0.0, 0.0, 193.0, 0.0, 1.0, 1.0, 0.0, 0.0, 1.0, 1.0, 256.0, 1.0, 1.608195589341934E9, 2020-12-17 14:44:49.341
139.0, 40101.62109375, 32027.34375, 29091.443359375, 26745.58203125, 26742.341796875, 34633.87109375, 33603.65625, 27111.279296875, 0.0, 0.0, 0.0, 193.0, 0.0, 1.0, 1.0, 0.0, 0.0, 1.0, 1.0, 256.0, 1.0, 1.608195589341936E9, 2020-12-17 14:44:49.341
140.0, 40216.75390625, 32173.078125, 29235.07421875, 26892.41015625, 26845.13671875, 34775.53515625, 33720.48828125, 27239.041015625, 0.0, 0.0, 0.0, 193.0, 0.0, 1.0, 1.0, 0.0, 0.0, 1.0, 1.0, 256.0, 1.0, 1.608195589341937E9, 2020-12-17 14:44:49.341
141.0, 40274.30859375, 32243.240234375, 29300.365234375, 26963.376953125, 26878.26171875, 34829.1796875, 33778.87109375, 27308.287109375, 0.0, 0.0, 0.0, 193.0, 0.0, 1.0, 1.0, 0.0, 0.0, 1.0, 1.0, 256.0, 1.0, 1.608195589341939E9, 2020-12-17 14:44:49.341
142.0, 40187.3828125, 32132.12890625, 29190.7734375, 26852.244140625, 26800.2109375, 34721.9140625, 33689.015625, 27220.19921875, 0.0, 0.0, 0.0, 193.0, 0.0, 1.0, 1.0, 0.0, 0.0, 1.0, 1.0, 256.0, 1.0, 1.608195589341941E9, 2020-12-17 14:44:49.341
143.0, 40086.46484375, 32014.58203125, 29079.484375, 26738.564453125, 26727.611328125, 34615.87890625, 33599.4296875, 27121.2265625, 0.0, 0.0, 0.0, 193.0, 0.0, 1.0, 1.0, 0.0, 0.0, 1.0, 1.0, 256.0, 1.0, 1.608195589341942E9, 2020-12-17 14:44:49.341
144.0, 40093.28515625, 32026.71875, 29094.818359375, 26754.724609375, 26745.046875, 34631.09765625, 33610.8515625, 27128.2890625, 0.0, 0.0, 0.0, 193.0, 0.0, 1.0, 1.0, 0.0, 0.0, 1.0, 1.0, 256.0, 1.0, 1.608195589341943E9, 2020-12-17 14:44:49.341
145.0, 40222.36328125, 32177.189453125, 29239.478515625, 26906.6484375, 26850.009765625, 34771.69140625, 33726.078125, 27254.197265625, 0.0, 0.0, 0.0, 193.0, 0.0, 1.0, 1.0, 0.0, 0.0, 1.0, 1.0, 256.0, 1.0, 1.608195589341945E9, 2020-12-17 14:44:49.341
146.0, 40290.76171875, 32247.486328125, 29307.0703125, 26978.533203125, 26898.625, 34841.65234375, 33786.203125, 27320.291015625, 0.0, 0.0, 0.0, 193.0, 0.0, 1.0, 1.0, 0.0, 0.0, 1.0, 1.0, 256.0, 1.0, 1.608195589341952E9, 2020-12-17 14:44:49.341
147.0, 40210.20703125, 32144.9140625, 29207.716796875, 26867.48828125, 26830.09375, 34754.14453125, 33709.06640625, 27235.912109375, 0.0, 0.0, 0.0, 193.0, 0.0, 1.0, 1.0, 0.0, 0.0, 1.0, 1.0, 256.0, 1.0, 1.608195589341954E9, 2020-12-17 14:44:49.341
148.0, 40102.22265625, 32027.6796875, 29095.80078125, 26742.609375, 26752.6015625, 34646.1875, 33619.68359375, 27140.73828125, 0.0, 0.0, 0.0, 193.0, 0.0, 1.0, 1.0, 0.0, 0.0, 1.0, 1.0, 256.0, 1.0, 1.608195589341955E9, 2020-12-17 14:44:49.341
149.0, 40104.5703125, 32032.373046875, 29101.568359375, 26750.4765625, 26770.28125, 34654.3203125, 33619.81640625, 27144.91796875, 0.0, 0.0, 0.0, 193.0, 0.0, 1.0, 1.0, 0.0, 0.0, 1.0, 1.0, 256.0, 1.0, 1.608195589341957E9, 2020-12-17 14:44:49.341
150.0, 40226.6796875, 32177.748046875, 29241.51171875, 26899.00390625, 26858.435546875, 34795.16015625, 33733.00390625, 27267.427734375, 0.0, 0.0, 0.0, 193.0, 0.0, 1.0, 1.0, 0.0, 0.0, 1.0, 1.0, 256.0, 1.0, 1.608195589341958E9, 2020-12-17 14:44:49.341
151.0, 40289.578125, 32246.435546875, 29308.142578125, 26987.337890625, 26899.294921875, 34860.2265625, 33795.859375, 27332.44921875, 0.0, 0.0, 0.0, 193.0, 0.0, 1.0, 1.0, 0.0, 0.0, 1.0, 1.0, 256.0, 1.0, 1.608195589401657E9, 2020-12-17 14:44:49.401
152.0, 40195.1171875, 32136.77734375, 29201.94921875, 26877.591796875, 26824.05859375, 34741.89453125, 33707.97265625, 27248.1171875, 0.0, 0.0, 0.0, 193.0, 0.0, 1.0, 1.0, 0.0, 0.0, 1.0, 1.0, 256.0, 1.0, 1.608195589401672E9, 2020-12-17 14:44:49.401
153.0, 40085.9765625, 32015.564453125, 29084.78125, 26752.66796875, 26730.0703125, 34614.6015625, 33604.328125, 27136.513671875, 0.0, 0.0, 0.0, 193.0, 0.0, 1.0, 1.0, 0.0, 0.0, 1.0, 1.0, 256.0, 1.0, 1.608195589401679E9, 2020-12-17 14:44:49.401
154.0, 40084.12109375, 32025.890625, 29098.505859375, 26759.529296875, 26736.552734375, 34629.80078125, 33618.87890625, 27142.458984375, 0.0, 0.0, 0.0, 193.0, 0.0, 1.0, 1.0, 0.0, 0.0, 1.0, 1.0, 256.0, 1.0, 1.608195589401686E9, 2020-12-17 14:44:49.401
155.0, 40216.10546875, 32185.080078125, 29253.26953125, 26917.154296875, 26845.517578125, 34777.859375, 33741.6328125, 27274.447265625, 0.0, 0.0, 0.0, 193.0, 0.0, 1.0, 1.0, 0.0, 0.0, 1.0, 1.0, 256.0, 1.0, 1.608195589401693E9, 2020-12-17 14:44:49.401
156.0, 40290.046875, 32257.388671875, 29320.66015625, 26990.802734375, 26905.44140625, 34857.92578125, 33801.11328125, 27350.46484375, 0.0, 0.0, 0.0, 193.0, 0.0, 1.0, 1.0, 0.0, 0.0, 1.0, 1.0, 256.0, 1.0, 1.6081955894017E9, 2020-12-17 14:44:49.401
157.0, 40195.6328125, 32144.310546875, 29208.498046875, 26868.31640625, 26815.0078125, 34751.12890625, 33713.87109375, 27256.744140625, 0.0, 0.0, 0.0, 193.0, 0.0, 1.0, 1.0, 0.0, 0.0, 1.0, 1.0, 256.0, 1.0, 1.608195589401707E9, 2020-12-17 14:44:49.401
158.0, 40096.92578125, 32022.896484375, 29091.21875, 26752.98046875, 26750.1875, 34653.2265625, 33609.625, 27146.662109375, 0.0, 0.0, 0.0, 193.0, 0.0, 1.0, 1.0, 0.0, 0.0, 1.0, 1.0, 256.0, 1.0, 1.608195589401714E9, 2020-12-17 14:44:49.401
159.0, 40099.2734375, 32033.22265625, 29101.90234375, 26766.392578125, 26756.84765625, 34657.78515625, 33607.0078125, 27148.78515625, 0.0, 0.0, 0.0, 193.0, 0.0, 1.0, 1.0, 0.0, 0.0, 1.0, 1.0, 256.0, 1.0, 1.608195589401721E9, 2020-12-17 14:44:49.401
160.0, 40240.0234375, 32193.39453125, 29260.98046875, 26932.509765625, 26873.970703125, 34806.08984375, 33747.95703125, 27296.619140625, 0.0, 0.0, 0.0, 193.0, 0.0, 1.0, 1.0, 0.0, 0.0, 1.0, 1.0, 256.0, 1.0, 1.608195589401728E9, 2020-12-17 14:44:49.401
161.0, 40295.72265625, 32257.880859375, 29321.822265625, 26987.0703125, 26909.48828125, 34868.85546875, 33805.203125, 27369.75390625, 0.0, 0.0, 0.0, 193.0, 0.0, 1.0, 1.0, 0.0, 0.0, 1.0, 1.0, 256.0, 1.0, 1.608195589401735E9, 2020-12-17 14:44:49.401
162.0, 40201.6015625, 32143.037109375, 29207.314453125, 26864.359375, 26826.673828125, 34758.7734375, 33708.5546875, 27271.966796875, 0.0, 0.0, 0.0, 193.0, 0.0, 1.0, 1.0, 0.0, 0.0, 1.0, 1.0, 256.0, 1.0, 1.608195589401742E9, 2020-12-17 14:44:49.401
163.0, 40109.21875, 32026.427734375, 29094.125, 26751.662109375, 26758.2109375, 34651.171875, 33617.203125, 27169.3046875, 0.0, 0.0, 0.0, 193.0, 0.0, 1.0, 1.0, 0.0, 0.0, 1.0, 1.0, 256.0, 1.0, 1.608195589401749E9, 2020-12-17 14:44:49.401
164.0, 40108.86328125, 32034.384765625, 29106.060546875, 26754.412109375, 26770.125, 34661.16015625, 33622.7890625, 27173.259765625, 0.0, 0.0, 0.0, 193.0, 0.0, 1.0, 1.0, 0.0, 0.0, 1.0, 1.0, 256.0, 1.0, 1.608195589401756E9, 2020-12-17 14:44:49.401
165.0, 40233.31640625, 32192.076171875, 29261.71875, 26924.8203125, 26874.8203125, 34802.58203125, 33745.58984375, 27303.01171875, 0.0, 0.0, 0.0, 193.0, 0.0, 1.0, 1.0, 0.0, 0.0, 1.0, 1.0, 256.0, 1.0, 1.608195589401764E9, 2020-12-17 14:44:49.401
166.0, 40305.69140625, 32275.537109375, 29341.4921875, 27025.783203125, 26921.9609375, 34875.26953125, 33816.9140625, 27385.04296875, 0.0, 0.0, 0.0, 193.0, 0.0, 1.0, 1.0, 0.0, 0.0, 1.0, 1.0, 256.0, 1.0, 1.608195589461876E9, 2020-12-17 14:44:49.461
167.0, 40201.7109375, 32158.28125, 29227.744140625, 26897.595703125, 26825.244140625, 34767.82421875, 33729.5859375, 27288.640625, 0.0, 0.0, 0.0, 193.0, 0.0, 1.0, 1.0, 0.0, 0.0, 1.0, 1.0, 256.0, 1.0, 1.608195589461881E9, 2020-12-17 14:44:49.461
168.0, 40096.43359375, 32031.591796875, 29107.916015625, 26769.365234375, 26751.482421875, 34665.41015625, 33635.328125, 27184.837890625, 0.0, 0.0, 0.0, 193.0, 0.0, 1.0, 1.0, 0.0, 0.0, 1.0, 1.0, 256.0, 1.0, 1.608195589461883E9, 2020-12-17 14:44:49.461
169.0, 40105.48828125, 32037.447265625, 29113.771484375, 26771.734375, 26774.326171875, 34668.73828125, 33625.3828125, 27185.7109375, 0.0, 0.0, 0.0, 193.0, 0.0, 1.0, 1.0, 0.0, 0.0, 1.0, 1.0, 256.0, 1.0, 1.608195589461884E9, 2020-12-17 14:44:49.461
170.0, 40240.1796875, 32199.5859375, 29271.59765625, 26922.83203125, 26879.267578125, 34814.96484375, 33748.16015625, 27320.044921875, 0.0, 0.0, 0.0, 193.0, 0.0, 1.0, 1.0, 0.0, 0.0, 1.0, 1.0, 256.0, 1.0, 1.608195589461901E9, 2020-12-17 14:44:49.461
171.0, 40298.02734375, 32261.34375, 29328.6171875, 26977.080078125, 26923.94921875, 34880.9453125, 33808.5546875, 27390.810546875, 0.0, 0.0, 0.0, 193.0, 0.0, 1.0, 1.0, 0.0, 0.0, 1.0, 1.0, 256.0, 1.0, 1.608195589461902E9, 2020-12-17 14:44:49.461
172.0, 40197.84375, 32147.39453125, 29218.6015625, 26859.755859375, 26836.419921875, 34774.39453125, 33729.09375, 27307.3046875, 0.0, 0.0, 0.0, 193.0, 0.0, 1.0, 1.0, 0.0, 0.0, 1.0, 1.0, 256.0, 1.0, 1.608195589461904E9, 2020-12-17 14:44:49.461
173.0, 40095.921875, 32024.21484375, 29099.154296875, 26734.787109375, 26752.802734375, 34654.546875, 33629.00390625, 27194.650390625, 0.0, 0.0, 0.0, 193.0, 0.0, 1.0, 1.0, 0.0, 0.0, 1.0, 1.0, 256.0, 1.0, 1.608195589461905E9, 2020-12-17 14:44:49.461
174.0, 40105.28515625, 32035.32421875, 29112.162109375, 26777.5234375, 26763.708984375, 34665.2734375, 33628.6015625, 27195.076171875, 0.0, 0.0, 0.0, 193.0, 0.0, 1.0, 1.0, 0.0, 0.0, 1.0, 1.0, 256.0, 1.0, 1.608195589461906E9, 2020-12-17 14:44:49.461
175.0, 40232.625, 32195.7421875, 29270.412109375, 26966.796875, 26876.720703125, 34819.7265625, 33754.8203125, 27340.96484375, 0.0, 0.0, 0.0, 193.0, 0.0, 1.0, 1.0, 0.0, 0.0, 1.0, 1.0, 256.0, 1.0, 1.608195589461908E9, 2020-12-17 14:44:49.461
176.0, 40295.3671875, 32269.904296875, 29339.927734375, 27017.291015625, 26913.533203125, 34889.1953125, 33821.71875, 27420.44921875, 0.0, 0.0, 0.0, 193.0, 0.0, 1.0, 1.0, 0.0, 0.0, 1.0, 1.0, 256.0, 1.0, 1.608195589461909E9, 2020-12-17 14:44:49.461
177.0, 40205.5546875, 32158.52734375, 29228.32421875, 26885.548828125, 26833.783203125, 34785.4375, 33733.140625, 27325.6328125, 0.0, 0.0, 0.0, 193.0, 0.0, 1.0, 1.0, 0.0, 0.0, 1.0, 1.0, 256.0, 1.0, 1.608195589461911E9, 2020-12-17 14:44:49.461
178.0, 40094.35546875, 32026.607421875, 29100.71875, 26771.5546875, 26746.3203125, 34656.66796875, 33623.48046875, 27206.51953125, 0.0, 0.0, 0.0, 193.0, 0.0, 1.0, 1.0, 0.0, 0.0, 1.0, 1.0, 256.0, 1.0, 1.608195589461912E9, 2020-12-17 14:44:49.461
179.0, 40113.19921875, 32036.77734375, 29113.2578125, 26793.59375, 26762.658203125, 34667.10546875, 33631.4609375, 27214.5, 0.0, 0.0, 0.0, 193.0, 0.0, 1.0, 1.0, 0.0, 0.0, 1.0, 1.0, 256.0, 1.0, 1.608195589461914E9, 2020-12-17 14:44:49.461
180.0, 40253.65625, 32201.396484375, 29274.279296875, 26952.55859375, 26879.669921875, 34822.96484375, 33757.9296875, 27359.875, 0.0, 0.0, 0.0, 193.0, 0.0, 1.0, 1.0, 0.0, 0.0, 1.0, 1.0, 256.0, 1.0, 1.608195589461915E9, 2020-12-17 14:44:49.461
181.0, 40287.23046875, 32264.49609375, 29331.701171875, 26998.693359375, 26907.609375, 34869.2109375, 33812.7109375, 27429.142578125, 0.0, 0.0, 0.0, 193.0, 0.0, 1.0, 1.0, 0.0, 0.0, 1.0, 1.0, 256.0, 1.0, 1.608195589522202E9, 2020-12-17 14:44:49.522
182.0, 40184.8828125, 32149.5859375, 29215.583984375, 26866.9296875, 26817.533203125, 34751.4609375, 33717.44921875, 27339.177734375, 0.0, 0.0, 0.0, 193.0, 0.0, 1.0, 1.0, 0.0, 0.0, 1.0, 1.0, 256.0, 1.0, 1.608195589522207E9, 2020-12-17 14:44:49.522
183.0, 40080.4296875, 32017.5546875, 29085.36328125, 26727.96875, 26736.5078125, 34623.65625, 33604.73046875, 27219.57421875, 0.0, 0.0, 0.0, 193.0, 0.0, 1.0, 1.0, 0.0, 0.0, 1.0, 1.0, 256.0, 1.0, 1.608195589522209E9, 2020-12-17 14:44:49.522
184.0, 40092.97265625, 32029.109375, 29101.5, 26740.708984375, 26746.275390625, 34645.9609375, 33615.546875, 27226.0546875, 0.0, 0.0, 0.0, 193.0, 0.0, 1.0, 1.0, 0.0, 0.0, 1.0, 1.0, 256.0, 1.0, 1.608195589522211E9, 2020-12-17 14:44:49.522
185.0, 40235.6875, 32196.904296875, 29266.904296875, 26922.96484375, 26852.55859375, 34810.359375, 33745.34375, 27365.6640625, 0.0, 0.0, 0.0, 193.0, 0.0, 1.0, 1.0, 0.0, 0.0, 1.0, 1.0, 256.0, 1.0, 1.608195589522213E9, 2020-12-17 14:44:49.522
186.0, 40283.96484375, 32263.19921875, 29329.7578125, 26996.4140625, 26889.4375, 34874.734375, 33804.95703125, 27436.83203125, 0.0, 0.0, 0.0, 193.0, 0.0, 1.0, 1.0, 0.0, 0.0, 1.0, 1.0, 256.0, 1.0, 1.608195589522215E9, 2020-12-17 14:44:49.522
187.0, 40186.78125, 32146.791015625, 29215.29296875, 26871.244140625, 26813.7109375, 34764.671875, 33725.02734375, 27354.220703125, 0.0, 0.0, 0.0, 193.0, 0.0, 1.0, 1.0, 0.0, 0.0, 1.0, 1.0, 256.0, 1.0, 1.608195589522217E9, 2020-12-17 14:44:49.522
188.0, 40079.6484375, 32022.740234375, 29095.845703125, 26747.638671875, 26738.18359375, 34655.08203125, 33626.4765625, 27251.201171875, 0.0, 0.0, 0.0, 193.0, 0.0, 1.0, 1.0, 0.0, 0.0, 1.0, 1.0, 256.0, 1.0, 1.608195589522219E9, 2020-12-17 14:44:49.522
189.0, 40083.76171875, 32027.27734375, 29104.40625, 26758.099609375, 26748.353515625, 34651.50390625, 33620.75390625, 27242.505859375, 0.0, 0.0, 0.0, 193.0, 0.0, 1.0, 1.0, 0.0, 0.0, 1.0, 1.0, 256.0, 1.0, 1.60819558952222E9, 2020-12-17 14:44:49.522
190.0, 40232.9609375, 32194.35546875, 29268.357421875, 26933.984375, 26863.755859375, 34806.5390625, 33744.29296875, 27383.814453125, 0.0, 0.0, 0.0, 193.0, 0.0, 1.0, 1.0, 0.0, 0.0, 1.0, 1.0, 256.0, 1.0, 1.608195589522222E9, 2020-12-17 14:44:49.522
191.0, 40281.39453125, 32253.56640625, 29322.4921875, 26988.45703125, 26885.28125, 34862.59765625, 33795.546875, 27454.51171875, 0.0, 0.0, 0.0, 193.0, 0.0, 1.0, 1.0, 0.0, 0.0, 1.0, 1.0, 256.0, 1.0, 1.608195589522224E9, 2020-12-17 14:44:49.522
192.0, 40174.77734375, 32137.828125, 29212.41015625, 26862.572265625, 26803.31640625, 34758.16796875, 33717.73828125, 27367.005859375, 0.0, 0.0, 0.0, 193.0, 0.0, 1.0, 1.0, 0.0, 0.0, 1.0, 1.0, 256.0, 1.0, 1.608195589522226E9, 2020-12-17 14:44:49.522
193.0, 40069.45703125, 32010.46875, 29089.162109375, 26728.28125, 26729.646484375, 34643.05859375, 33611.01171875, 27256.744140625, 0.0, 0.0, 0.0, 193.0, 0.0, 1.0, 1.0, 0.0, 0.0, 1.0, 1.0, 256.0, 1.0, 1.608195589522237E9, 2020-12-17 14:44:49.522
194.0, 40078.41796875, 32019.72265625, 29098.037109375, 26733.958984375, 26742.474609375, 34650.56640625, 33610.13671875, 27252.51953125, 0.0, 0.0, 0.0, 193.0, 0.0, 1.0, 1.0, 0.0, 0.0, 1.0, 1.0, 256.0, 1.0, 1.608195589522239E9, 2020-12-17 14:44:49.522
195.0, 40223.6171875, 32195.25, 29269.40625, 26918.205078125, 26856.4921875, 34813.35546875, 33749.8125, 27398.4765625, 0.0, 0.0, 0.0, 193.0, 0.0, 1.0, 1.0, 0.0, 0.0, 1.0, 1.0, 256.0, 1.0, 1.608195589522241E9, 2020-12-17 14:44:49.522
196.0, 40282.8046875, 32258.88671875, 29329.17578125, 26996.16796875, 26895.673828125, 34869.76953125, 33805.359375, 27467.41015625, 0.0, 0.0, 0.0, 193.0, 0.0, 1.0, 1.0, 0.0, 0.0, 1.0, 1.0, 256.0, 1.0, 1.60819558958244E9, 2020-12-17 14:44:49.582
197.0, 40187.18359375, 32140.109375, 29210.62109375, 26872.25, 26824.3046875, 34768.98828125, 33718.3671875, 27387.009765625, 0.0, 0.0, 0.0, 193.0, 0.0, 1.0, 1.0, 0.0, 0.0, 1.0, 1.0, 256.0, 1.0, 1.608195589582449E9, 2020-12-17 14:44:49.582
198.0, 40064.11328125, 32005.9765625, 29078.1875, 26723.029296875, 26732.640625, 34641.26953125, 33604.21484375, 27267.541015625, 0.0, 0.0, 0.0, 193.0, 0.0, 1.0, 1.0, 0.0, 0.0, 1.0, 1.0, 256.0, 1.0, 1.608195589582453E9, 2020-12-17 14:44:49.582
199.0, 40066.23828125, 32013.642578125, 29091.419921875, 26727.142578125, 26738.98828125, 34652.15234375, 33612.171875, 27268.703125, 0.0, 0.0, 0.0, 193.0, 0.0, 1.0, 1.0, 0.0, 0.0, 1.0, 1.0, 256.0, 1.0, 1.608195589582457E9, 2020-12-17 14:44:49.582
200.0, 40214.296875, 32187.158203125, 29263.70703125, 26919.322265625, 26852.87109375, 34820.70703125, 33752.49609375, 27412.4921875, 0.0, 0.0, 0.0, 193.0, 0.0, 1.0, 1.0, 0.0, 0.0, 1.0, 1.0, 256.0, 1.0, 1.608195589582461E9, 2020-12-17 14:44:49.582
201.0, 40277.3046875, 32262.9765625, 29335.255859375, 27004.505859375, 26895.0703125, 34883.26953125, 33815.484375, 27483.63671875, 0.0, 0.0, 0.0, 193.0, 0.0, 1.0, 1.0, 0.0, 0.0, 1.0, 1.0, 256.0, 1.0, 1.608195589582465E9, 2020-12-17 14:44:49.582
202.0, 40172.921875, 32139.03515625, 29212.857421875, 26871.736328125, 26807.966796875, 34767.1328125, 33721.09375, 27388.240234375, 0.0, 0.0, 0.0, 193.0, 0.0, 1.0, 1.0, 0.0, 0.0, 1.0, 1.0, 256.0, 1.0, 1.608195589582469E9, 2020-12-17 14:44:49.582
203.0, 40060.11328125, 32008.6796875, 29090.1015625, 26741.267578125, 26729.35546875, 34657.5859375, 33621.1796875, 27283.41015625, 0.0, 0.0, 0.0, 193.0, 0.0, 1.0, 1.0, 0.0, 0.0, 1.0, 1.0, 256.0, 1.0, 1.608195589582473E9, 2020-12-17 14:44:49.582
204.0, 40073.75, 32020.638671875, 29104.048828125, 26749.986328125, 26757.630859375, 34672.984375, 33627.796875, 27294.966796875, 0.0, 0.0, 0.0, 193.0, 0.0, 1.0, 1.0, 0.0, 0.0, 1.0, 1.0, 256.0, 1.0, 1.608195589582477E9, 2020-12-17 14:44:49.582
205.0, 40210.13671875, 32177.32421875, 29252.5546875, 26903.20703125, 26860.4921875, 34803.7421875, 33739.46484375, 27423.64453125, 0.0, 0.0, 0.0, 193.0, 0.0, 1.0, 1.0, 0.0, 0.0, 1.0, 1.0, 256.0, 1.0, 1.608195589582481E9, 2020-12-17 14:44:49.582
206.0, 40274.734375, 32250.705078125, 29322.314453125, 26976.521484375, 26891.96484375, 34871.8046875, 33804.62109375, 27498.322265625, 0.0, 0.0, 0.0, 193.0, 0.0, 1.0, 1.0, 0.0, 0.0, 1.0, 1.0, 256.0, 1.0, 1.608195589582485E9, 2020-12-17 14:44:49.582
207.0, 40172.85546875, 32137.5390625, 29213.662109375, 26859.21875, 26807.787109375, 34758.66015625, 33728.19921875, 27412.044921875, 0.0, 0.0, 0.0, 193.0, 0.0, 1.0, 1.0, 0.0, 0.0, 1.0, 1.0, 256.0, 1.0, 1.608195589582489E9, 2020-12-17 14:44:49.582
208.0, 40049.96484375, 32001.728515625, 29084.2890625, 26741.939453125, 26722.4921875, 34636.796875, 33617.1328125, 27290.47265625, 0.0, 0.0, 0.0, 193.0, 0.0, 1.0, 1.0, 0.0, 0.0, 1.0, 1.0, 256.0, 1.0, 1.608195589582493E9, 2020-12-17 14:44:49.582
209.0, 40050.1015625, 32009.23828125, 29091.12890625, 26755.73046875, 26735.27734375, 34647.99609375, 33611.14453125, 27288.328125, 0.0, 0.0, 0.0, 193.0, 0.0, 1.0, 1.0, 0.0, 0.0, 1.0, 1.0, 256.0, 1.0, 1.608195589582498E9, 2020-12-17 14:44:49.582
210.0, 40204.59375, 32185.146484375, 29260.80078125, 26931.615234375, 26853.072265625, 34816.4375, 33738.9296875, 27433.009765625, 0.0, 0.0, 0.0, 193.0, 0.0, 1.0, 1.0, 0.0, 0.0, 1.0, 1.0, 256.0, 1.0, 1.608195589582502E9, 2020-12-17 14:44:49.582
211.0, 40274.625, 32266.708984375, 29340.93359375, 27011.6796875, 26911.23046875, 34903.8125, 33816.890625, 27519.734375, 0.0, 0.0, 0.0, 193.0, 0.0, 1.0, 1.0, 0.0, 0.0, 1.0, 1.0, 256.0, 1.0, 1.608195589641917E9, 2020-12-17 14:44:49.641
212.0, 40182.06640625, 32146.166015625, 29225.396484375, 26889.326171875, 26832.28515625, 34798.4453125, 33741.85546875, 27436.7421875, 0.0, 0.0, 0.0, 193.0, 0.0, 1.0, 1.0, 0.0, 0.0, 1.0, 1.0, 256.0, 1.0, 1.608195589641922E9, 2020-12-17 14:44:49.641
213.0, 40065.6328125, 32007.62890625, 29093.140625, 26741.201171875, 26735.322265625, 34669.1640625, 33639.93359375, 27321.072265625, 0.0, 0.0, 0.0, 193.0, 0.0, 1.0, 1.0, 0.0, 0.0, 1.0, 1.0, 256.0, 1.0, 1.608195589641923E9, 2020-12-17 14:44:49.641
214.0, 40057.296875, 32009.59765625, 29092.08984375, 26726.60546875, 26734.80859375, 34659.88671875, 33622.296875, 27309.2265625, 0.0, 0.0, 0.0, 193.0, 0.0, 1.0, 1.0, 0.0, 0.0, 1.0, 1.0, 256.0, 1.0, 1.608195589641925E9, 2020-12-17 14:44:49.641
215.0, 40199.3203125, 32176.296875, 29254.365234375, 26899.80859375, 26853.921875, 34813.37890625, 33743.77734375, 27445.236328125, 0.0, 0.0, 0.0, 193.0, 0.0, 1.0, 1.0, 0.0, 0.0, 1.0, 1.0, 256.0, 1.0, 1.608195589641926E9, 2020-12-17 14:44:49.641
216.0, 40269.97265625, 32253.587890625, 29327.947265625, 26995.384765625, 26913.310546875, 34891.05078125, 33810.8359375, 27520.80859375, 0.0, 0.0, 0.0, 193.0, 0.0, 1.0, 1.0, 0.0, 0.0, 1.0, 1.0, 256.0, 1.0, 1.608195589641934E9, 2020-12-17 14:44:49.641
217.0, 40162.57421875, 32133.560546875, 29208.23046875, 26871.177734375, 26816.146484375, 34768.94140625, 33723.9296875, 27431.53515625, 0.0, 0.0, 0.0, 193.0, 0.0, 1.0, 1.0, 0.0, 0.0, 1.0, 1.0, 256.0, 1.0, 1.608195589641935E9, 2020-12-17 14:44:49.641
218.0, 40055.62109375, 32000.208984375, 29075.23828125, 26724.9296875, 26728.953125, 34634.4296875, 33617.0234375, 27320.9609375, 0.0, 0.0, 0.0, 193.0, 0.0, 1.0, 1.0, 0.0, 0.0, 1.0, 1.0, 256.0, 1.0, 1.608195589641936E9, 2020-12-17 14:44:49.641
219.0, 40054.50390625, 32006.265625, 29088.044921875, 26734.00390625, 26744.0625, 34654.96875, 33623.52734375, 27320.87109375, 0.0, 0.0, 0.0, 193.0, 0.0, 1.0, 1.0, 0.0, 0.0, 1.0, 1.0, 256.0, 1.0, 1.608195589641938E9, 2020-12-17 14:44:49.641
220.0, 40209.01953125, 32185.125, 29265.33984375, 26922.4296875, 26867.64453125, 34833.73828125, 33758.93359375, 27472.841796875, 0.0, 0.0, 0.0, 193.0, 0.0, 1.0, 1.0, 0.0, 0.0, 1.0, 1.0, 256.0, 1.0, 1.608195589641939E9, 2020-12-17 14:44:49.641
221.0, 40286.89453125, 32261.634765625, 29336.529296875, 26997.642578125, 26917.892578125, 34908.1484375, 33822.45703125, 27545.259765625, 0.0, 0.0, 0.0, 193.0, 0.0, 1.0, 1.0, 0.0, 0.0, 1.0, 1.0, 256.0, 1.0, 1.60819558964194E9, 2020-12-17 14:44:49.641
222.0, 40174.890625, 32134.341796875, 29209.482421875, 26859.7109375, 26817.419921875, 34771.3125, 33724.51171875, 27439.24609375, 0.0, 0.0, 0.0, 193.0, 0.0, 1.0, 1.0, 0.0, 0.0, 1.0, 1.0, 256.0, 1.0, 1.608195589641942E9, 2020-12-17 14:44:49.641
223.0, 40052.1328125, 31997.99609375, 29081.048828125, 26733.892578125, 26730.0703125, 34641.046875, 33618.51953125, 27327.509765625, 0.0, 0.0, 0.0, 193.0, 0.0, 1.0, 1.0, 0.0, 0.0, 1.0, 1.0, 256.0, 1.0, 1.608195589641943E9, 2020-12-17 14:44:49.641
224.0, 40060.875, 31996.23046875, 29080.958984375, 26740.53125, 26752.646484375, 34647.08203125, 33600.90625, 27324.76171875, 0.0, 0.0, 0.0, 193.0, 0.0, 1.0, 1.0, 0.0, 0.0, 1.0, 1.0, 256.0, 1.0, 1.608195589641945E9, 2020-12-17 14:44:49.641
225.0, 40217.0, 32178.330078125, 29255.59375, 26916.841796875, 26875.513671875, 34812.05859375, 33737.69921875, 27474.337890625, 0.0, 0.0, 0.0, 193.0, 0.0, 1.0, 1.0, 0.0, 0.0, 1.0, 1.0, 256.0, 1.0, 1.608195589641946E9, 2020-12-17 14:44:49.641
226.0, 40269.66015625, 32263.310546875, 29339.814453125, 26990.177734375, 26901.57421875, 34880.1875, 33824.35546875, 27554.9609375, 0.0, 0.0, 0.0, 193.0, 0.0, 1.0, 1.0, 0.0, 0.0, 1.0, 1.0, 256.0, 1.0, 1.608195589701638E9, 2020-12-17 14:44:49.701
227.0, 40175.5390625, 32140.935546875, 29220.970703125, 26870.6171875, 26822.94140625, 34782.8671875, 33734.546875, 27455.451171875, 0.0, 0.0, 0.0, 193.0, 0.0, 1.0, 1.0, 0.0, 0.0, 1.0, 1.0, 256.0, 1.0, 1.608195589701646E9, 2020-12-17 14:44:49.701
228.0, 40089.4375, 32014.22265625, 29098.7734375, 26751.037109375, 26769.1640625, 34688.0078125, 33634.30078125, 27356.25390625, 0.0, 0.0, 0.0, 193.0, 0.0, 1.0, 1.0, 0.0, 0.0, 1.0, 1.0, 256.0, 1.0, 1.608195589701648E9, 2020-12-17 14:44:49.701
229.0, 40079.71484375, 32025.66796875, 29111.55859375, 26761.83203125, 26768.158203125, 34683.15625, 33634.03125, 27360.009765625, 0.0, 0.0, 0.0, 193.0, 0.0, 1.0, 1.0, 0.0, 0.0, 1.0, 1.0, 256.0, 1.0, 1.608195589701651E9, 2020-12-17 14:44:49.701
230.0, 40213.46875, 32192.904296875, 29273.185546875, 26929.0234375, 26861.365234375, 34821.7578125, 33753.2578125, 27490.767578125, 0.0, 0.0, 0.0, 193.0, 0.0, 1.0, 1.0, 0.0, 0.0, 1.0, 1.0, 256.0, 1.0, 1.608195589701653E9, 2020-12-17 14:44:49.701
231.0, 40284.63671875, 32263.19921875, 29339.033203125, 27003.341796875, 26913.0859375, 34896.79296875, 33820.734375, 27568.88671875, 0.0, 0.0, 0.0, 193.0, 0.0, 1.0, 1.0, 0.0, 0.0, 1.0, 1.0, 256.0, 1.0, 1.608195589701656E9, 2020-12-17 14:44:49.701
232.0, 40183.875, 32142.43359375, 29218.244140625, 26871.51171875, 26835.705078125, 34783.6484375, 33728.08984375, 27479.412109375, 0.0, 0.0, 0.0, 193.0, 0.0, 1.0, 1.0, 0.0, 0.0, 1.0, 1.0, 256.0, 1.0, 1.608195589701658E9, 2020-12-17 14:44:49.701
233.0, 40065.6328125, 31996.990234375, 29082.099609375, 26732.283203125, 26747.90625, 34659.70703125, 33624.6015625, 27363.921875, 0.0, 0.0, 0.0, 193.0, 0.0, 1.0, 1.0, 0.0, 0.0, 1.0, 1.0, 256.0, 1.0, 1.608195589701661E9, 2020-12-17 14:44:49.701
234.0, 40072.33984375, 32012.033203125, 29097.5, 26742.431640625, 26758.166015625, 34670.5703125, 33627.7734375, 27360.14453125, 0.0, 0.0, 0.0, 193.0, 0.0, 1.0, 1.0, 0.0, 0.0, 1.0, 1.0, 256.0, 1.0, 1.608195589701663E9, 2020-12-17 14:44:49.701
235.0, 40236.0234375, 32202.58203125, 29280.42578125, 26939.841796875, 26884.990234375, 34851.1953125, 33767.78515625, 27512.26953125, 0.0, 0.0, 0.0, 193.0, 0.0, 1.0, 1.0, 0.0, 0.0, 1.0, 1.0, 256.0, 1.0, 1.608195589701666E9, 2020-12-17 14:44:49.701
236.0, 40290.2265625, 32271.40234375, 29344.107421875, 27007.34375, 26906.828125, 34911.03125, 33821.71875, 27574.294921875, 0.0, 0.0, 0.0, 193.0, 0.0, 1.0, 1.0, 0.0, 0.0, 1.0, 1.0, 256.0, 1.0, 1.608195589701668E9, 2020-12-17 14:44:49.701
237.0, 40187.83203125, 32140.48828125, 29217.193359375, 26880.69921875, 26832.173828125, 34794.22265625, 33731.0390625, 27484.8671875, 0.0, 0.0, 0.0, 193.0, 0.0, 1.0, 1.0, 0.0, 0.0, 1.0, 1.0, 256.0, 1.0, 1.60819558970167E9, 2020-12-17 14:44:49.701
238.0, 40056.40234375, 31999.337890625, 29081.65234375, 26729.310546875, 26736.552734375, 34652.578125, 33624.890625, 27368.615234375, 0.0, 0.0, 0.0, 193.0, 0.0, 1.0, 1.0, 0.0, 0.0, 1.0, 1.0, 256.0, 1.0, 1.608195589701673E9, 2020-12-17 14:44:49.701
239.0, 40062.4375, 32009.484375, 29094.728515625, 26744.017578125, 26751.974609375, 34671.95703125, 33634.09765625, 27372.01171875, 0.0, 0.0, 0.0, 193.0, 0.0, 1.0, 1.0, 0.0, 0.0, 1.0, 1.0, 256.0, 1.0, 1.608195589701684E9, 2020-12-17 14:44:49.701
240.0, 40216.48828125, 32180.9453125, 29263.193359375, 26927.79296875, 26878.330078125, 34841.49609375, 33763.62890625, 27518.68359375, 0.0, 0.0, 0.0, 193.0, 0.0, 1.0, 1.0, 0.0, 0.0, 1.0, 1.0, 256.0, 1.0, 1.608195589701686E9, 2020-12-17 14:44:49.701
241.0, 40292.97265625, 32264.71875, 29341.22265625, 27009.578125, 26934.72265625, 34912.375, 33829.33984375, 27599.150390625, 0.0, 0.0, 0.0, 193.0, 0.0, 1.0, 1.0, 0.0, 0.0, 1.0, 1.0, 256.0, 1.0, 1.608195589761654E9, 2020-12-17 14:44:49.761
242.0, 40194.6484375, 32137.314453125, 29213.416015625, 26878.44140625, 26853.853515625, 34795.2734375, 33734.30078125, 27498.03125, 0.0, 0.0, 0.0, 193.0, 0.0, 1.0, 1.0, 0.0, 0.0, 1.0, 1.0, 256.0, 1.0, 1.608195589761662E9, 2020-12-17 14:44:49.761
243.0, 40058.99609375, 31997.59375, 29078.61328125, 26728.974609375, 26747.68359375, 34670.125, 33626.8125, 27380.505859375, 0.0, 0.0, 0.0, 193.0, 0.0, 1.0, 1.0, 0.0, 0.0, 1.0, 1.0, 256.0, 1.0, 1.608195589761666E9, 2020-12-17 14:44:49.761
244.0, 40078.17578125, 32010.2890625, 29090.771484375, 26745.693359375, 26768.849609375, 34674.4609375, 33620.6875, 27383.412109375, 0.0, 0.0, 0.0, 193.0, 0.0, 1.0, 1.0, 0.0, 0.0, 1.0, 1.0, 256.0, 1.0, 1.608195589761669E9, 2020-12-17 14:44:49.761
245.0, 40218.07421875, 32187.60546875, 29264.154296875, 26918.31640625, 26865.09765625, 34824.171875, 33752.5625, 27526.708984375, 0.0, 0.0, 0.0, 193.0, 0.0, 1.0, 1.0, 0.0, 0.0, 1.0, 1.0, 256.0, 1.0, 1.608195589761673E9, 2020-12-17 14:44:49.761
246.0, 40276.703125, 32269.234375, 29342.095703125, 26985.931640625, 26895.49609375, 34875.046875, 33825.5625, 27604.26953125, 0.0, 0.0, 0.0, 193.0, 0.0, 1.0, 1.0, 0.0, 0.0, 1.0, 1.0, 256.0, 1.0, 1.608195589761676E9, 2020-12-17 14:44:49.761
247.0, 40184.61328125, 32147.373046875, 29222.646484375, 26870.21484375, 26825.310546875, 34782.2421875, 33733.6328125, 27513.275390625, 0.0, 0.0, 0.0, 193.0, 0.0, 1.0, 1.0, 0.0, 0.0, 1.0, 1.0, 256.0, 1.0, 1.60819558976168E9, 2020-12-17 14:44:49.761
248.0, 40072.51953125, 32001.7734375, 29082.724609375, 26727.8359375, 26746.38671875, 34663.171875, 33626.65625, 27396.93359375, 0.0, 0.0, 0.0, 193.0, 0.0, 1.0, 1.0, 0.0, 0.0, 1.0, 1.0, 256.0, 1.0, 1.608195589761683E9, 2020-12-17 14:44:49.761
249.0, 40087.80859375, 32014.22265625, 29099.376953125, 26748.130859375, 26767.978515625, 34668.6953125, 33631.75390625, 27392.888671875, 0.0, 0.0, 0.0, 193.0, 0.0, 1.0, 1.0, 0.0, 0.0, 1.0, 1.0, 256.0, 1.0, 1.608195589761687E9, 2020-12-17 14:44:49.761
250.0, 40229.13671875, 32191.49609375, 29270.591796875, 26929.134765625, 26875.15625, 34830.25390625, 33758.75390625, 27531.783203125, 0.0, 0.0, 0.0, 193.0, 0.0, 1.0, 1.0, 0.0, 0.0, 1.0, 1.0, 256.0, 1.0, 1.60819558976169E9, 2020-12-17 14:44:49.761
251.0, 40282.6484375, 32265.63671875, 29340.240234375, 26997.93359375, 26909.689453125, 34897.1953125, 33827.7109375, 27610.9296875, 0.0, 0.0, 0.0, 193.0, 0.0, 1.0, 1.0, 0.0, 0.0, 1.0, 1.0, 256.0, 1.0, 1.608195589761693E9, 2020-12-17 14:44:49.761
252.0, 40190.8046875, 32152.37890625, 29227.720703125, 26881.681640625, 26843.39453125, 34800.34765625, 33753.12109375, 27535.4921875, 0.0, 0.0, 0.0, 193.0, 0.0, 1.0, 1.0, 0.0, 0.0, 1.0, 1.0, 256.0, 1.0, 1.608195589761697E9, 2020-12-17 14:44:49.761
253.0, 40070.70703125, 32006.2890625, 29084.15625, 26730.517578125, 26751.23828125, 34659.08203125, 33631.6171875, 27409.80859375, 0.0, 0.0, 0.0, 193.0, 0.0, 1.0, 1.0, 0.0, 0.0, 1.0, 1.0, 256.0, 1.0, 1.608195589761701E9, 2020-12-17 14:44:49.761
254.0, 40067.578125, 32011.2734375, 29093.1640625, 26739.5703125, 26755.88671875, 34662.3671875, 33630.94921875, 27395.83984375, 0.0, 0.0, 0.0, 193.0, 0.0, 1.0, 1.0, 0.0, 0.0, 1.0, 1.0, 256.0, 1.0, 1.608195589761704E9, 2020-12-17 14:44:49.761
255.0, 40222.92578125, 32188.43359375, 29267.91015625, 26927.548828125, 26881.525390625, 34841.20703125, 33769.19140625, 27540.72265625, 0.0, 0.0, 0.0, 193.0, 0.0, 1.0, 1.0, 0.0, 0.0, 1.0, 1.0, 256.0, 1.0, 1.608195589761708E9, 2020-12-17 14:44:49.761
0.0, 40295.3671875, 32273.771484375, 29352.66796875, 27018.318359375, 26928.888671875, 34935.3046875, 33852.4296875, 27626.822265625, 0.0, 0.0, 0.0, 193.0, 0.0, 1.0, 1.0, 0.0, 0.0, 1.0, 1.0, 256.0, 1.0, 1.608195589821568E9, 2020-12-17 14:44:49.821
1.0, 40204.03515625, 32154.7265625, 29232.28125, 26890.9140625, 26846.1875, 34805.82421875, 33754.8203125, 27534.197265625, 0.0, 0.0, 0.0, 193.0, 0.0, 1.0, 1.0, 0.0, 0.0, 1.0, 1.0, 256.0, 1.0, 1.608195589821584E9, 2020-12-17 14:44:49.821
2.0, 40068.47265625, 32014.357421875, 29097.41015625, 26742.765625, 26744.509765625, 34665.98828125, 33650.55078125, 27420.626953125, 0.0, 0.0, 0.0, 193.0, 0.0, 1.0, 1.0, 0.0, 0.0, 1.0, 1.0, 256.0, 1.0, 1.608195589821591E9, 2020-12-17 14:44:49.821
3.0, 40071.6015625, 32011.138671875, 29093.185546875, 26748.376953125, 26758.412109375, 34671.2890625, 33633.36328125, 27406.61328125, 0.0, 0.0, 0.0, 193.0, 0.0, 1.0, 1.0, 0.0, 0.0, 1.0, 1.0, 256.0, 1.0, 1.608195589821598E9, 2020-12-17 14:44:49.821
4.0, 40228.01953125, 32191.271484375, 29266.79296875, 26933.470703125, 26885.52734375, 34835.50390625, 33761.37109375, 27556.212890625, 0.0, 0.0, 0.0, 193.0, 0.0, 1.0, 1.0, 0.0, 0.0, 1.0, 1.0, 256.0, 1.0, 1.608195589821605E9, 2020-12-17 14:44:49.821
5.0, 40286.984375, 32274.15234375, 29349.873046875, 27010.31640625, 26924.0390625, 34906.3828125, 33843.46875, 27643.83203125, 0.0, 0.0, 0.0, 193.0, 0.0, 1.0, 1.0, 0.0, 0.0, 1.0, 1.0, 256.0, 1.0, 1.608195589821612E9, 2020-12-17 14:44:49.821
6.0, 40194.0234375, 32149.474609375, 29227.38671875, 26888.298828125, 26840.599609375, 34798.40234375, 33751.4921875, 27537.169921875, 0.0, 0.0, 0.0, 193.0, 0.0, 1.0, 1.0, 0.0, 0.0, 1.0, 1.0, 256.0, 1.0, 1.608195589821619E9, 2020-12-17 14:44:49.821
7.0, 40091.13671875, 32020.458984375, 29103.7578125, 26761.541015625, 26776.517578125, 34692.8359375, 33657.63671875, 27428.115234375, 0.0, 0.0, 0.0, 193.0, 0.0, 1.0, 1.0, 0.0, 0.0, 1.0, 1.0, 256.0, 1.0, 1.608195589821649E9, 2020-12-17 14:44:49.821
8.0, 40083.515625, 32023.611328125, 29109.078125, 26762.099609375, 26785.14453125, 34689.19140625, 33654.6640625, 27430.5078125, 0.0, 0.0, 0.0, 193.0, 0.0, 1.0, 1.0, 0.0, 0.0, 1.0, 1.0, 256.0, 1.0, 1.608195589821656E9, 2020-12-17 14:44:49.821
9.0, 40224.93359375, 32199.765625, 29278.302734375, 26937.158203125, 26886.48828125, 34837.8984375, 33779.2734375, 27568.328125, 0.0, 0.0, 0.0, 193.0, 0.0, 1.0, 1.0, 0.0, 0.0, 1.0, 1.0, 256.0, 1.0, 1.608195589821663E9, 2020-12-17 14:44:49.821
10.0, 40303.5, 32277.794921875, 29350.65625, 27021.0234375, 26938.724609375, 34915.48046875, 33844.921875, 27644.033203125, 0.0, 0.0, 0.0, 193.0, 0.0, 1.0, 1.0, 0.0, 0.0, 1.0, 1.0, 256.0, 1.0, 1.60819558982167E9, 2020-12-17 14:44:49.821
11.0, 40207.27734375, 32159.734375, 29234.29296875, 26898.22265625, 26860.984375, 34814.5390625, 33756.40625, 27557.5546875, 0.0, 0.0, 0.0, 193.0, 0.0, 1.0, 1.0, 0.0, 0.0, 1.0, 1.0, 256.0, 1.0, 1.608195589821678E9, 2020-12-17 14:44:49.821
12.0, 40089.8203125, 32026.091796875, 29107.513671875, 26759.91015625, 26774.416015625, 34691.44921875, 33660.80859375, 27452.6796875, 0.0, 0.0, 0.0, 193.0, 0.0, 1.0, 1.0, 0.0, 0.0, 1.0, 1.0, 256.0, 1.0, 1.608195589821685E9, 2020-12-17 14:44:49.821
13.0, 40073.75, 32020.818359375, 29103.69140625, 26747.75, 26763.060546875, 34670.05859375, 33639.015625, 27435.55859375, 0.0, 0.0, 0.0, 193.0, 0.0, 1.0, 1.0, 0.0, 0.0, 1.0, 1.0, 256.0, 1.0, 1.608195589821692E9, 2020-12-17 14:44:49.821
14.0, 40216.015625, 32187.875, 29263.70703125, 26920.08203125, 26874.150390625, 34819.703125, 33756.20703125, 27564.640625, 0.0, 0.0, 0.0, 193.0, 0.0, 1.0, 1.0, 0.0, 0.0, 1.0, 1.0, 256.0, 1.0, 1.608195589821699E9, 2020-12-17 14:44:49.821
15.0, 40282.84765625, 32268.384765625, 29341.3125, 26996.033203125, 26914.60546875, 34887.3828125, 33829.609375, 27639.115234375, 0.0, 0.0, 0.0, 193.0, 0.0, 1.0, 1.0, 0.0, 0.0, 1.0, 1.0, 256.0, 1.0, 1.6081955898818E9, 2020-12-17 14:44:49.881
16.0, 40197.21875, 32150.30078125, 29221.3515625, 26875.1328125, 26844.80078125, 34778.88671875, 33741.36328125, 27552.748046875, 0.0, 0.0, 0.0, 193.0, 0.0, 1.0, 1.0, 0.0, 0.0, 1.0, 1.0, 256.0, 1.0, 1.608195589881805E9, 2020-12-17 14:44:49.881
17.0, 40091.09375, 32014.15625, 29088.873046875, 26744.017578125, 26762.546875, 34660.1328125, 33633.5859375, 27439.916015625, 0.0, 0.0, 0.0, 193.0, 0.0, 1.0, 1.0, 0.0, 0.0, 1.0, 1.0, 256.0, 1.0, 1.608195589881807E9, 2020-12-17 14:44:49.881
18.0, 40073.6796875, 32019.6328125, 29101.12109375, 26746.900390625, 26748.0859375, 34665.02734375, 33634.94921875, 27428.875, 0.0, 0.0, 0.0, 193.0, 0.0, 1.0, 1.0, 0.0, 0.0, 1.0, 1.0, 256.0, 1.0, 1.608195589881808E9, 2020-12-17 14:44:49.881
19.0, 40215.83984375, 32195.40625, 29273.921875, 26925.669921875, 26864.046875, 34832.6015625, 33775.00390625, 27577.89453125, 0.0, 0.0, 0.0, 193.0, 0.0, 1.0, 1.0, 0.0, 0.0, 1.0, 1.0, 256.0, 1.0, 1.60819558988181E9, 2020-12-17 14:44:49.881
20.0, 40311.86328125, 32287.98828125, 29358.658203125, 27022.609375, 26935.7734375, 34919.79296875, 33847.3125, 27667.189453125, 0.0, 0.0, 0.0, 193.0, 0.0, 1.0, 1.0, 0.0, 0.0, 1.0, 1.0, 256.0, 1.0, 1.608195589881811E9, 2020-12-17 14:44:49.881
21.0, 40198.0234375, 32155.93359375, 29228.123046875, 26882.978515625, 26842.275390625, 34796.90234375, 33752.00390625, 27571.30078125, 0.0, 0.0, 0.0, 193.0, 0.0, 1.0, 1.0, 0.0, 0.0, 1.0, 1.0, 256.0, 1.0, 1.608195589881812E9, 2020-12-17 14:44:49.881
22.0, 40073.01171875, 32014.06640625, 29093.587890625, 26737.625, 26745.291015625, 34667.734375, 33653.25390625, 27458.1328125, 0.0, 0.0, 0.0, 193.0, 0.0, 1.0, 1.0, 0.0, 0.0, 1.0, 1.0, 256.0, 1.0, 1.608195589881814E9, 2020-12-17 14:44:49.881
23.0, 40080.9453125, 32026.3828125, 29106.798828125, 26752.33203125, 26749.494140625, 34671.109375, 33648.60546875, 27448.9921875, 0.0, 0.0, 0.0, 193.0, 0.0, 1.0, 1.0, 0.0, 0.0, 1.0, 1.0, 256.0, 1.0, 1.608195589881815E9, 2020-12-17 14:44:49.881
24.0, 40228.15234375, 32191.94140625, 29266.166015625, 26930.20703125, 26869.74609375, 34834.0078125, 33758.12890625, 27585.6953125, 0.0, 0.0, 0.0, 193.0, 0.0, 1.0, 1.0, 0.0, 0.0, 1.0, 1.0, 256.0, 1.0, 1.608195589881817E9, 2020-12-17 14:44:49.881
25.0, 40296.08203125, 32279.6953125, 29348.80078125, 27008.796875, 26921.916015625, 34912.375, 33832.62890625, 27677.44921875, 0.0, 0.0, 0.0, 193.0, 0.0, 1.0, 1.0, 0.0, 0.0, 1.0, 1.0, 256.0, 1.0, 1.608195589881818E9, 2020-12-17 14:44:49.881
26.0, 40191.5859375, 32159.0859375, 29228.8828125, 26876.048828125, 26832.060546875, 34788.09765625, 33739.77734375, 27580.732421875, 0.0, 0.0, 0.0, 193.0, 0.0, 1.0, 1.0, 0.0, 0.0, 1.0, 1.0, 256.0, 1.0, 1.60819558988182E9, 2020-12-17 14:44:49.881
27.0, 40068.80859375, 32007.33984375, 29081.474609375, 26724.6171875, 26733.892578125, 34645.76171875, 33618.20703125, 27447.830078125, 0.0, 0.0, 0.0, 193.0, 0.0, 1.0, 1.0, 0.0, 0.0, 1.0, 1.0, 256.0, 1.0, 1.608195589881822E9, 2020-12-17 14:44:49.881
28.0, 40077.4140625, 32015.318359375, 29097.1640625, 26745.224609375, 26752.287109375, 34665.7890625, 33636.22265625, 27447.94140625, 0.0, 0.0, 0.0, 193.0, 0.0, 1.0, 1.0, 0.0, 0.0, 1.0, 1.0, 256.0, 1.0, 1.608195589881825E9, 2020-12-17 14:44:49.881
29.0, 40229.40625, 32194.267578125, 29270.79296875, 26928.396484375, 26870.841796875, 34831.19140625, 33776.234375, 27599.84375, 0.0, 0.0, 0.0, 193.0, 0.0, 1.0, 1.0, 0.0, 0.0, 1.0, 1.0, 256.0, 1.0, 1.608195589881827E9, 2020-12-17 14:44:49.881
30.0, 40298.8984375, 32273.525390625, 29343.16796875, 27003.7890625, 26913.197265625, 34895.49609375, 33834.640625, 27672.77734375, 0.0, 0.0, 0.0, 193.0, 0.0, 1.0, 1.0, 0.0, 0.0, 1.0, 1.0, 256.0, 1.0, 1.608195589942102E9, 2020-12-17 14:44:49.942
31.0, 40201.1328125, 32152.73828125, 29224.033203125, 26878.708984375, 26833.3125, 34788.12109375, 33735.015625, 27579.056640625, 0.0, 0.0, 0.0, 193.0, 0.0, 1.0, 1.0, 0.0, 0.0, 1.0, 1.0, 256.0, 1.0, 1.608195589942108E9, 2020-12-17 14:44:49.942
32.0, 40071.265625, 32006.802734375, 29081.763671875, 26729.6015625, 26740.822265625, 34659.640625, 33614.96484375, 27455.98828125, 0.0, 0.0, 0.0, 193.0, 0.0, 1.0, 1.0, 0.0, 0.0, 1.0, 1.0, 256.0, 1.0, 1.608195589942109E9, 2020-12-17 14:44:49.942
33.0, 40073.79296875, 32015.453125, 29092.962890625, 26744.486328125, 26752.109375, 34671.46484375, 33622.02734375, 27456.345703125, 0.0, 0.0, 0.0, 193.0, 0.0, 1.0, 1.0, 0.0, 0.0, 1.0, 1.0, 256.0, 1.0, 1.608195589942111E9, 2020-12-17 14:44:49.942
34.0, 40215.8828125, 32194.04296875, 29269.697265625, 26924.26171875, 26862.4140625, 34831.4140625, 33771.8515625, 27606.83984375, 0.0, 0.0, 0.0, 193.0, 0.0, 1.0, 1.0, 0.0, 0.0, 1.0, 1.0, 256.0, 1.0, 1.608195589942113E9, 2020-12-17 14:44:49.942
35.0, 40294.11328125, 32283.919921875, 29355.86328125, 27014.67578125, 26907.296875, 34907.9921875, 33847.04296875, 27686.501953125, 0.0, 0.0, 0.0, 193.0, 0.0, 1.0, 1.0, 0.0, 0.0, 1.0, 1.0, 256.0, 1.0, 1.608195589942115E9, 2020-12-17 14:44:49.942
36.0, 40199.8359375, 32159.15234375, 29233.197265625, 26887.494140625, 26830.65234375, 34794.17578125, 33752.765625, 27589.517578125, 0.0, 0.0, 0.0, 193.0, 0.0, 1.0, 1.0, 0.0, 0.0, 1.0, 1.0, 256.0, 1.0, 1.608195589942116E9, 2020-12-17 14:44:49.942
37.0, 40072.609375, 32020.50390625, 29101.45703125, 26741.291015625, 26731.322265625, 34659.1484375, 33643.41796875, 27466.626953125, 0.0, 0.0, 0.0, 193.0, 0.0, 1.0, 1.0, 0.0, 0.0, 1.0, 1.0, 256.0, 1.0, 1.608195589942118E9, 2020-12-17 14:44:49.942
38.0, 40084.25390625, 32030.607421875, 29112.69921875, 26753.091796875, 26756.333984375, 34660.84765625, 33637.25, 27462.42578125, 0.0, 0.0, 0.0, 193.0, 0.0, 1.0, 1.0, 0.0, 0.0, 1.0, 1.0, 256.0, 1.0, 1.60819558994212E9, 2020-12-17 14:44:49.942
39.0, 40223.32421875, 32197.216796875, 29271.6640625, 26923.7265625, 26865.87890625, 34817.734375, 33757.30078125, 27596.177734375, 0.0, 0.0, 0.0, 193.0, 0.0, 1.0, 1.0, 0.0, 0.0, 1.0, 1.0, 256.0, 1.0, 1.608195589942122E9, 2020-12-17 14:44:49.942
40.0, 40309.046875, 32287.048828125, 29353.203125, 27013.111328125, 26923.189453125, 34903.43359375, 33833.453125, 27675.37109375, 0.0, 0.0, 0.0, 193.0, 0.0, 1.0, 1.0, 0.0, 0.0, 1.0, 1.0, 256.0, 1.0, 1.608195589942124E9, 2020-12-17 14:44:49.942
41.0, 40208.171875, 32173.234375, 29246.40625, 26904.189453125, 26853.7421875, 34817.64453125, 33759.8515625, 27590.701171875, 0.0, 0.0, 0.0, 193.0, 0.0, 1.0, 1.0, 0.0, 0.0, 1.0, 1.0, 256.0, 1.0, 1.608195589942125E9, 2020-12-17 14:44:49.942
42.0, 40090.55859375, 32037.46875, 29116.38671875, 26763.552734375, 26756.69140625, 34684.9453125, 33656.65234375, 27466.203125, 0.0, 0.0, 0.0, 193.0, 0.0, 1.0, 1.0, 0.0, 0.0, 1.0, 1.0, 256.0, 1.0, 1.608195589942127E9, 2020-12-17 14:44:49.942
43.0, 40092.45703125, 32030.2265625, 29108.20703125, 26759.552734375, 26767.732421875, 34680.80859375, 33632.9375, 27435.08984375, 0.0, 0.0, 0.0, 193.0, 0.0, 1.0, 1.0, 0.0, 0.0, 1.0, 1.0, 256.0, 1.0, 1.608195589942129E9, 2020-12-17 14:44:49.942
44.0, 40239.48828125, 32209.443359375, 29281.5, 26935.013671875, 26892.052734375, 34838.859375, 33764.296875, 27578.23046875, 0.0, 0.0, 0.0, 193.0, 0.0, 1.0, 1.0, 0.0, 0.0, 1.0, 1.0, 256.0, 1.0, 1.608195589942131E9, 2020-12-17 14:44:49.942
45.0, 40302.05078125, 32290.24609375, 29356.84765625, 27010.271484375, 26935.6171875, 34907.92578125, 33835.15234375, 27657.66796875, 0.0, 0.0, 0.0, 193.0, 0.0, 1.0, 1.0, 0.0, 0.0, 1.0, 1.0, 256.0, 1.0, 1.608195590002458E9, 2020-12-17 14:44:50.002
46.0, 40213.73828125, 32176.51953125, 29246.072265625, 26899.162109375, 26872.697265625, 34814.91796875, 33761.48046875, 27582.1640625, 0.0, 0.0, 0.0, 193.0, 0.0, 1.0, 1.0, 0.0, 0.0, 1.0, 1.0, 256.0, 1.0, 1.608195590002465E9, 2020-12-17 14:44:50.002
47.0, 40097.21875, 32047.05859375, 29126.84765625, 26771.2421875, 26781.724609375, 34711.4765625, 33680.2109375, 27491.818359375, 0.0, 0.0, 0.0, 193.0, 0.0, 1.0, 1.0, 0.0, 0.0, 1.0, 1.0, 256.0, 1.0, 1.608195590002467E9, 2020-12-17 14:44:50.002
48.0, 40081.79296875, 32044.041015625, 29129.59765625, 26767.978515625, 26759.015625, 34705.57421875, 33695.05078125, 27510.392578125, 0.0, 0.0, 0.0, 193.0, 0.0, 1.0, 1.0, 0.0, 0.0, 1.0, 1.0, 256.0, 1.0, 1.608195590002469E9, 2020-12-17 14:44:50.002
49.0, 40223.9296875, 32204.080078125, 29282.4609375, 26934.923828125, 26863.48828125, 34849.0078125, 33807.86328125, 27651.654296875, 0.0, 0.0, 0.0, 193.0, 0.0, 1.0, 1.0, 0.0, 0.0, 1.0, 1.0, 256.0, 1.0, 1.608195590002471E9, 2020-12-17 14:44:50.002
50.0, 40295.90234375, 32290.423828125, 29361.18359375, 27016.083984375, 26909.197265625, 34918.18359375, 33861.9765625, 27729.662109375, 0.0, 0.0, 0.0, 193.0, 0.0, 1.0, 1.0, 0.0, 0.0, 1.0, 1.0, 256.0, 1.0, 1.608195590002473E9, 2020-12-17 14:44:50.002
51.0, 40179.65234375, 32165.880859375, 29238.44921875, 26881.123046875, 26806.8046875, 34786.44140625, 33761.50390625, 27627.716796875, 0.0, 0.0, 0.0, 193.0, 0.0, 1.0, 1.0, 0.0, 0.0, 1.0, 1.0, 256.0, 1.0, 1.608195590002475E9, 2020-12-17 14:44:50.002
52.0, 40047.77734375, 32021.822265625, 29099.51171875, 26727.611328125, 26683.130859375, 34642.09765625, 33642.97265625, 27502.166015625, 0.0, 0.0, 0.0, 193.0, 0.0, 1.0, 1.0, 0.0, 0.0, 1.0, 1.0, 256.0, 1.0, 1.608195590002477E9, 2020-12-17 14:44:50.002
53.0, 40038.85546875, 32006.84765625, 29082.099609375, 26716.078125, 26680.025390625, 34632.21484375, 33610.8984375, 27472.37109375, 0.0, 0.0, 0.0, 193.0, 0.0, 1.0, 1.0, 0.0, 0.0, 1.0, 1.0, 256.0, 1.0, 1.608195590002487E9, 2020-12-17 14:44:50.002
54.0, 40184.546875, 32181.056640625, 29251.078125, 26892.90234375, 26793.302734375, 34778.171875, 33731.7109375, 27595.775390625, 0.0, 0.0, 0.0, 193.0, 0.0, 1.0, 1.0, 0.0, 0.0, 1.0, 1.0, 256.0, 1.0, 1.608195590002489E9, 2020-12-17 14:44:50.002
55.0, 40266.48828125, 32275.4921875, 29343.01171875, 26984.74609375, 26856.826171875, 34865.3671875, 33816.37890625, 27674.654296875, 0.0, 0.0, 0.0, 193.0, 0.0, 1.0, 1.0, 0.0, 0.0, 1.0, 1.0, 256.0, 1.0, 1.608195590002491E9, 2020-12-17 14:44:50.002
56.0, 40174.77734375, 32154.951171875, 29224.525390625, 26866.03515625, 26792.1640625, 34768.60546875, 33730.48046875, 27578.54296875, 0.0, 0.0, 0.0, 193.0, 0.0, 1.0, 1.0, 0.0, 0.0, 1.0, 1.0, 256.0, 1.0, 1.608195590002493E9, 2020-12-17 14:44:50.002
57.0, 40078.53125, 32040.576171875, 29112.140625, 26749.5390625, 26720.4140625, 34657.5390625, 33630.6328125, 27457.1953125, 0.0, 0.0, 0.0, 193.0, 0.0, 1.0, 1.0, 0.0, 0.0, 1.0, 1.0, 256.0, 1.0, 1.608195590002495E9, 2020-12-17 14:44:50.002
58.0, 40079.91796875, 32035.7265625, 29106.5078125, 26742.876953125, 26731.298828125, 34645.29296875, 33621.0234375, 27448.74609375, 0.0, 0.0, 0.0, 193.0, 0.0, 1.0, 1.0, 0.0, 0.0, 1.0, 1.0, 256.0, 1.0, 1.608195590002497E9, 2020-12-17 14:44:50.002
59.0, 40200.05859375, 32178.150390625, 29249.111328125, 26896.703125, 26840.5546875, 34790.0625, 33739.421875, 27578.900390625, 0.0, 0.0, 0.0, 193.0, 0.0, 1.0, 1.0, 0.0, 0.0, 1.0, 1.0, 256.0, 1.0, 1.608195590002499E9, 2020-12-17 14:44:50.002
60.0, 40264.140625, 32256.248046875, 29323.431640625, 26975.9609375, 26888.611328125, 34864.2734375, 33800.953125, 27651.54296875, 0.0, 0.0, 0.0, 193.0, 0.0, 1.0, 1.0, 0.0, 0.0, 1.0, 1.0, 256.0, 1.0, 1.608195590061619E9, 2020-12-17 14:44:50.061
61.0, 40191.72265625, 32161.87890625, 29231.69921875, 26875.71484375, 26826.294921875, 34779.55859375, 33742.59375, 27580.3984375, 0.0, 0.0, 0.0, 193.0, 0.0, 1.0, 1.0, 0.0, 0.0, 1.0, 1.0, 256.0, 1.0, 1.608195590061626E9, 2020-12-17 14:44:50.061
62.0, 40080.453125, 32032.9765625, 29112.498046875, 26751.9296875, 26739.099609375, 34675.66796875, 33649.8359375, 27474.00390625, 0.0, 0.0, 0.0, 193.0, 0.0, 1.0, 1.0, 0.0, 0.0, 1.0, 1.0, 256.0, 1.0, 1.608195590061628E9, 2020-12-17 14:44:50.061
63.0, 40071.4453125, 32019.453125, 29101.8359375, 26747.236328125, 26747.90625, 34670.4375, 33631.4609375, 27461.955078125, 0.0, 0.0, 0.0, 193.0, 0.0, 1.0, 1.0, 0.0, 0.0, 1.0, 1.0, 256.0, 1.0, 1.608195590061631E9, 2020-12-17 14:44:50.061
64.0, 40194.3359375, 32173.078125, 29253.044921875, 26903.744140625, 26852.111328125, 34814.359375, 33754.7109375, 27592.736328125, 0.0, 0.0, 0.0, 193.0, 0.0, 1.0, 1.0, 0.0, 0.0, 1.0, 1.0, 256.0, 1.0, 1.608195590061633E9, 2020-12-17 14:44:50.061
65.0, 40267.71484375, 32252.515625, 29331.322265625, 26985.1484375, 26901.3515625, 34880.74609375, 33822.3671875, 27665.892578125, 0.0, 0.0, 0.0, 193.0, 0.0, 1.0, 1.0, 0.0, 0.0, 1.0, 1.0, 256.0, 1.0, 1.608195590061636E9, 2020-12-17 14:44:50.061
66.0, 40170.890625, 32133.58203125, 29218.421875, 26867.7578125, 26826.16015625, 34779.4453125, 33741.3203125, 27585.26953125, 0.0, 0.0, 0.0, 193.0, 0.0, 1.0, 1.0, 0.0, 0.0, 1.0, 1.0, 256.0, 1.0, 1.608195590061639E9, 2020-12-17 14:44:50.061
67.0, 40064.33984375, 32006.087890625, 29091.62109375, 26736.5078125, 26745.60546875, 34658.859375, 33634.8125, 27476.26171875, 0.0, 0.0, 0.0, 193.0, 0.0, 1.0, 1.0, 0.0, 0.0, 1.0, 1.0, 256.0, 1.0, 1.608195590061641E9, 2020-12-17 14:44:50.061
68.0, 40063.64453125, 31998.220703125, 29085.1171875, 26735.322265625, 26746.521484375, 34657.1171875, 33623.4609375, 27453.41796875, 0.0, 0.0, 0.0, 193.0, 0.0, 1.0, 1.0, 0.0, 0.0, 1.0, 1.0, 256.0, 1.0, 1.608195590061644E9, 2020-12-17 14:44:50.061
69.0, 40197.66796875, 32152.89453125, 29237.890625, 26895.3828125, 26856.8046875, 34807.58984375, 33750.75390625, 27587.728515625, 0.0, 0.0, 0.0, 193.0, 0.0, 1.0, 1.0, 0.0, 0.0, 1.0, 1.0, 256.0, 1.0, 1.608195590061646E9, 2020-12-17 14:44:50.061
70.0, 40266.0859375, 32239.998046875, 29323.521484375, 26982.2421875, 26905.15234375, 34879.8515625, 33831.80078125, 27673.626953125, 0.0, 0.0, 0.0, 193.0, 0.0, 1.0, 1.0, 0.0, 0.0, 1.0, 1.0, 256.0, 1.0, 1.608195590061649E9, 2020-12-17 14:44:50.061
71.0, 40161.58984375, 32121.779296875, 29208.990234375, 26860.537109375, 26813.28515625, 34768.29296875, 33740.16015625, 27581.26953125, 0.0, 0.0, 0.0, 193.0, 0.0, 1.0, 1.0, 0.0, 0.0, 1.0, 1.0, 256.0, 1.0, 1.608195590061651E9, 2020-12-17 14:44:50.061
72.0, 40053.18359375, 31987.37890625, 29074.0078125, 26717.0390625, 26719.7890625, 34640.7109375, 33615.81640625, 27461.978515625, 0.0, 0.0, 0.0, 193.0, 0.0, 1.0, 1.0, 0.0, 0.0, 1.0, 1.0, 256.0, 1.0, 1.608195590061654E9, 2020-12-17 14:44:50.061
73.0, 40061.453125, 31981.009765625, 29070.4765625, 26719.990234375, 26743.7265625, 34640.48828125, 33610.20703125, 27455.98828125, 0.0, 0.0, 0.0, 193.0, 0.0, 1.0, 1.0, 0.0, 0.0, 1.0, 1.0, 256.0, 1.0, 1.608195590061657E9, 2020-12-17 14:44:50.061
74.0, 40186.9375, 32131.8828125, 29224.30078125, 26882.083984375, 26853.138671875, 34794.7578125, 33747.84765625, 27593.18359375, 0.0, 0.0, 0.0, 193.0, 0.0, 1.0, 1.0, 0.0, 0.0, 1.0, 1.0, 256.0, 1.0, 1.608195590061659E9, 2020-12-17 14:44:50.061
75.0, 40245.09765625, 32206.716796875, 29294.44140625, 26952.134765625, 26900.30078125, 34864.765625, 33820.734375, 27675.212890625, 0.0, 0.0, 0.0, 193.0, 0.0, 1.0, 1.0, 0.0, 0.0, 1.0, 1.0, 256.0, 1.0, 1.608195590121542E9, 2020-12-17 14:44:50.121
76.0, 40167.24609375, 32110.537109375, 29203.87109375, 26861.296875, 26837.42578125, 34783.2265625, 33750.37109375, 27595.841796875, 0.0, 0.0, 0.0, 193.0, 0.0, 1.0, 1.0, 0.0, 0.0, 1.0, 1.0, 256.0, 1.0, 1.608195590121559E9, 2020-12-17 14:44:50.121
77.0, 40069.0078125, 31992.029296875, 29091.576171875, 26746.119140625, 26749.91796875, 34674.8203125, 33660.85546875, 27485.0234375, 0.0, 0.0, 0.0, 193.0, 0.0, 1.0, 1.0, 0.0, 0.0, 1.0, 1.0, 256.0, 1.0, 1.608195590121587E9, 2020-12-17 14:44:50.121
78.0, 40048.1328125, 31972.515625, 29071.638671875, 26723.8125, 26738.876953125, 34657.765625, 33639.88671875, 27467.07421875, 0.0, 0.0, 0.0, 193.0, 0.0, 1.0, 1.0, 0.0, 0.0, 1.0, 1.0, 256.0, 1.0, 1.608195590121594E9, 2020-12-17 14:44:50.121
79.0, 40172.74609375, 32108.705078125, 29211.806640625, 26874.91015625, 26851.796875, 34790.421875, 33784.83984375, 27602.146484375, 0.0, 0.0, 0.0, 193.0, 0.0, 1.0, 1.0, 0.0, 0.0, 1.0, 1.0, 256.0, 1.0, 1.608195590121601E9, 2020-12-17 14:44:50.121
80.0, 40247.12890625, 32194.982421875, 29290.529296875, 26960.31640625, 26913.599609375, 34883.60546875, 33824.4921875, 27671.994140625, 0.0, 0.0, 0.0, 193.0, 0.0, 1.0, 1.0, 0.0, 0.0, 1.0, 1.0, 256.0, 1.0, 1.608195590121608E9, 2020-12-17 14:44:50.121
81.0, 40161.234375, 32095.5625, 29187.0859375, 26845.025390625, 26830.2734375, 34781.6171875, 33711.1015625, 27583.884765625, 0.0, 0.0, 0.0, 193.0, 0.0, 1.0, 1.0, 0.0, 0.0, 1.0, 1.0, 256.0, 1.0, 1.608195590121615E9, 2020-12-17 14:44:50.121
82.0, 40055.8203125, 31964.53515625, 29058.451171875, 26717.3515625, 26745.671875, 34657.453125, 33603.453125, 27471.701171875, 0.0, 0.0, 0.0, 193.0, 0.0, 1.0, 1.0, 0.0, 0.0, 1.0, 1.0, 256.0, 1.0, 1.608195590121622E9, 2020-12-17 14:44:50.121
83.0, 40037.71875, 31948.083984375, 29048.28125, 26705.080078125, 26738.294921875, 34637.0234375, 33608.39453125, 27453.55078125, 0.0, 0.0, 0.0, 193.0, 0.0, 1.0, 1.0, 0.0, 0.0, 1.0, 1.0, 256.0, 1.0, 1.608195590121629E9, 2020-12-17 14:44:50.121
84.0, 40165.8828125, 32092.72265625, 29196.048828125, 26863.017578125, 26859.017578125, 34800.34765625, 33749.41015625, 27588.623046875, 0.0, 0.0, 0.0, 193.0, 0.0, 1.0, 1.0, 0.0, 0.0, 1.0, 1.0, 256.0, 1.0, 1.608195590121636E9, 2020-12-17 14:44:50.121
85.0, 40244.40234375, 32174.060546875, 29271.5078125, 26942.14453125, 26916.484375, 34878.7578125, 33813.5390625, 27660.259765625, 0.0, 0.0, 0.0, 193.0, 0.0, 1.0, 1.0, 0.0, 0.0, 1.0, 1.0, 256.0, 1.0, 1.608195590121643E9, 2020-12-17 14:44:50.121
86.0, 40152.6953125, 32076.294921875, 29176.736328125, 26842.34375, 26826.47265625, 34768.8515625, 33746.3515625, 27584.98046875, 0.0, 0.0, 0.0, 193.0, 0.0, 1.0, 1.0, 0.0, 0.0, 1.0, 1.0, 256.0, 1.0, 1.608195590121651E9, 2020-12-17 14:44:50.121
87.0, 40068.36328125, 31972.3359375, 29076.04296875, 26742.587890625, 26757.361328125, 34686.30859375, 33657.25390625, 27488.173828125, 0.0, 0.0, 0.0, 193.0, 0.0, 1.0, 1.0, 0.0, 0.0, 1.0, 1.0, 256.0, 1.0, 1.608195590121658E9, 2020-12-17 14:44:50.121
88.0, 40044.15625, 31954.701171875, 29057.06640625, 26714.87109375, 26753.5625, 34667.6875, 33632.51171875, 27473.578125, 0.0, 0.0, 0.0, 193.0, 0.0, 1.0, 1.0, 0.0, 0.0, 1.0, 1.0, 256.0, 1.0, 1.608195590121665E9, 2020-12-17 14:44:50.121
89.0, 40142.58984375, 32078.9765625, 29181.23046875, 26837.203125, 26839.81640625, 34777.2109375, 33751.78125, 27599.21875, 0.0, 0.0, 0.0, 193.0, 0.0, 1.0, 1.0, 0.0, 0.0, 1.0, 1.0, 256.0, 1.0, 1.608195590121672E9, 2020-12-17 14:44:50.121
90.0, 40217.29296875, 32164.875, 29262.947265625, 26926.98828125, 26902.177734375, 34861.87890625, 33815.86328125, 27674.498046875, 0.0, 0.0, 0.0, 193.0, 0.0, 1.0, 1.0, 0.0, 0.0, 1.0, 1.0, 256.0, 1.0, 1.608195590181832E9, 2020-12-17 14:44:50.181
91.0, 40154.66015625, 32081.5703125, 29178.994140625, 26844.130859375, 26839.03515625, 34781.703125, 33751.37890625, 27598.501953125, 0.0, 0.0, 0.0, 193.0, 0.0, 1.0, 1.0, 0.0, 0.0, 1.0, 1.0, 256.0, 1.0, 1.608195590181847E9, 2020-12-17 14:44:50.181
92.0, 40071.4453125, 31978.169921875, 29077.5625, 26738.564453125, 26794.107421875, 34692.0078125, 33657.63671875, 27511.330078125, 0.0, 0.0, 0.0, 193.0, 0.0, 1.0, 1.0, 0.0, 0.0, 1.0, 1.0, 256.0, 1.0, 1.608195590181854E9, 2020-12-17 14:44:50.181
93.0, 40049.69921875, 31953.2265625, 29059.30078125, 26716.32421875, 26773.9921875, 34666.390625, 33644.58203125, 27496.400390625, 0.0, 0.0, 0.0, 193.0, 0.0, 1.0, 1.0, 0.0, 0.0, 1.0, 1.0, 256.0, 1.0, 1.608195590181861E9, 2020-12-17 14:44:50.181
94.0, 40152.08984375, 32074.416015625, 29178.94921875, 26846.27734375, 26866.751953125, 34802.8046875, 33750.59765625, 27601.341796875, 0.0, 0.0, 0.0, 193.0, 0.0, 1.0, 1.0, 0.0, 0.0, 1.0, 1.0, 256.0, 1.0, 1.608195590181868E9, 2020-12-17 14:44:50.181
95.0, 40229.60546875, 32157.521484375, 29251.548828125, 26920.708984375, 26914.830078125, 34862.55078125, 33809.58203125, 27673.693359375, 0.0, 0.0, 0.0, 193.0, 0.0, 1.0, 1.0, 0.0, 0.0, 1.0, 1.0, 256.0, 1.0, 1.608195590181875E9, 2020-12-17 14:44:50.181
96.0, 40170.64453125, 32081.435546875, 29178.345703125, 26843.818359375, 26859.732421875, 34781.30078125, 33764.43359375, 27612.47265625, 0.0, 0.0, 0.0, 193.0, 0.0, 1.0, 1.0, 0.0, 0.0, 1.0, 1.0, 256.0, 1.0, 1.608195590181883E9, 2020-12-17 14:44:50.181
97.0, 40058.39453125, 31964.021484375, 29064.173828125, 26730.763671875, 26781.27734375, 34699.91796875, 33656.5625, 27502.94921875, 0.0, 0.0, 0.0, 193.0, 0.0, 1.0, 1.0, 0.0, 0.0, 1.0, 1.0, 256.0, 1.0, 1.608195590181922E9, 2020-12-17 14:44:50.181
98.0, 40047.0390625, 31956.310546875, 29058.33984375, 26719.05078125, 26774.83984375, 34686.95703125, 33645.25390625, 27481.46875, 0.0, 0.0, 0.0, 193.0, 0.0, 1.0, 1.0, 0.0, 0.0, 1.0, 1.0, 256.0, 1.0, 1.60819559018193E9, 2020-12-17 14:44:50.181
99.0, 40159.19921875, 32077.255859375, 29186.974609375, 26859.978515625, 26875.580078125, 34804.97265625, 33775.47265625, 27601.474609375, 0.0, 0.0, 0.0, 193.0, 0.0, 1.0, 1.0, 0.0, 0.0, 1.0, 1.0, 256.0, 1.0, 1.60819559018194E9, 2020-12-17 14:44:50.181
100.0, 40234.390625, 32164.404296875, 29264.958984375, 26943.193359375, 26919.791015625, 34881.66015625, 33842.6171875, 27678.767578125, 0.0, 0.0, 0.0, 193.0, 0.0, 1.0, 1.0, 0.0, 0.0, 1.0, 1.0, 256.0, 1.0, 1.608195590181968E9, 2020-12-17 14:44:50.181
101.0, 40165.27734375, 32088.251953125, 29184.58203125, 26848.712890625, 26853.18359375, 34782.578125, 33763.15625, 27611.19921875, 0.0, 0.0, 0.0, 193.0, 0.0, 1.0, 1.0, 0.0, 0.0, 1.0, 1.0, 256.0, 1.0, 1.608195590181977E9, 2020-12-17 14:44:50.181
102.0, 40067.265625, 31977.767578125, 29074.455078125, 26731.90234375, 26774.908203125, 34688.4765625, 33655.04296875, 27508.87109375, 0.0, 0.0, 0.0, 193.0, 0.0, 1.0, 1.0, 0.0, 0.0, 1.0, 1.0, 256.0, 1.0, 1.608195590181985E9, 2020-12-17 14:44:50.181
103.0, 40033.8515625, 31942.318359375, 29039.2734375, 26691.40234375, 26755.73046875, 34656.578125, 33619.79296875, 27483.66015625, 0.0, 0.0, 0.0, 193.0, 0.0, 1.0, 1.0, 0.0, 0.0, 1.0, 1.0, 256.0, 1.0, 1.608195590181993E9, 2020-12-17 14:44:50.181
104.0, 40134.74609375, 32069.923828125, 29169.00390625, 26821.064453125, 26830.564453125, 34764.31640625, 33744.62890625, 27590.791015625, 0.0, 0.0, 0.0, 193.0, 0.0, 1.0, 1.0, 0.0, 0.0, 1.0, 1.0, 256.0, 1.0, 1.608195590182001E9, 2020-12-17 14:44:50.182
105.0, 40219.83984375, 32160.494140625, 29257.337890625, 26920.708984375, 26892.5234375, 34869.45703125, 33822.63671875, 27666.40625, 0.0, 0.0, 0.0, 193.0, 0.0, 1.0, 1.0, 0.0, 0.0, 1.0, 1.0, 256.0, 1.0, 1.608195590243526E9, 2020-12-17 14:44:50.243
106.0, 40164.8984375, 32085.5703125, 29177.765625, 26832.798828125, 26847.73046875, 34789.4375, 33751.01953125, 27600.46875, 0.0, 0.0, 0.0, 193.0, 0.0, 1.0, 1.0, 0.0, 0.0, 1.0, 1.0, 256.0, 1.0, 1.60819559024353E9, 2020-12-17 14:44:50.243
107.0, 40074.23828125, 31980.115234375, 29075.88671875, 26718.9609375, 26774.4609375, 34688.765625, 33660.80859375, 27504.625, 0.0, 0.0, 0.0, 193.0, 0.0, 1.0, 1.0, 0.0, 0.0, 1.0, 1.0, 256.0, 1.0, 1.608195590243531E9, 2020-12-17 14:44:50.243
108.0, 40048.3125, 31946.744140625, 29040.63671875, 26701.302734375, 26749.671875, 34651.68359375, 33623.37109375, 27480.150390625, 0.0, 0.0, 0.0, 193.0, 0.0, 1.0, 1.0, 0.0, 0.0, 1.0, 1.0, 256.0, 1.0, 1.608195590243533E9, 2020-12-17 14:44:50.243
109.0, 40146.28125, 32068.8515625, 29160.888671875, 26831.79296875, 26833.89453125, 34768.29296875, 33716.01953125, 27589.0703125, 0.0, 0.0, 0.0, 193.0, 0.0, 1.0, 1.0, 0.0, 0.0, 1.0, 1.0, 256.0, 1.0, 1.608195590243534E9, 2020-12-17 14:44:50.243
110.0, 40219.32421875, 32153.630859375, 29249.1796875, 26919.009765625, 26900.994140625, 34858.39453125, 33813.984375, 27677.962890625, 0.0, 0.0, 0.0, 193.0, 0.0, 1.0, 1.0, 0.0, 0.0, 1.0, 1.0, 256.0, 1.0, 1.608195590243536E9, 2020-12-17 14:44:50.243
111.0, 40154.99609375, 32078.57421875, 29172.2890625, 26832.28515625, 26827.658203125, 34770.125, 33744.515625, 27597.49609375, 0.0, 0.0, 0.0, 193.0, 0.0, 1.0, 1.0, 0.0, 0.0, 1.0, 1.0, 256.0, 1.0, 1.608195590243537E9, 2020-12-17 14:44:50.243
112.0, 40059.12890625, 31979.556640625, 29077.2265625, 26728.23828125, 26746.744140625, 34692.1875, 33655.109375, 27507.12890625, 0.0, 0.0, 0.0, 193.0, 0.0, 1.0, 1.0, 0.0, 0.0, 1.0, 1.0, 256.0, 1.0, 1.608195590243538E9, 2020-12-17 14:44:50.243
113.0, 40040.109375, 31944.12890625, 29045.287109375, 26690.75390625, 26744.107421875, 34649.0703125, 33630.30078125, 27487.705078125, 0.0, 0.0, 0.0, 193.0, 0.0, 1.0, 1.0, 0.0, 0.0, 1.0, 1.0, 256.0, 1.0, 1.60819559024354E9, 2020-12-17 14:44:50.243
114.0, 40127.83984375, 32054.009765625, 29147.544921875, 26795.3828125, 26842.365234375, 34755.84375, 33723.05859375, 27590.5234375, 0.0, 0.0, 0.0, 193.0, 0.0, 1.0, 1.0, 0.0, 0.0, 1.0, 1.0, 256.0, 1.0, 1.608195590243541E9, 2020-12-17 14:44:50.243
115.0, 40186.06640625, 32132.263671875, 29228.50390625, 26883.873046875, 26871.466796875, 34829.06640625, 33800.73046875, 27672.396484375, 0.0, 0.0, 0.0, 193.0, 0.0, 1.0, 1.0, 0.0, 0.0, 1.0, 1.0, 256.0, 1.0, 1.608195590243543E9, 2020-12-17 14:44:50.243
116.0, 40117.19921875, 32059.5078125, 29156.62109375, 26820.638671875, 26807.02734375, 34766.1015625, 33748.98828125, 27618.015625, 0.0, 0.0, 0.0, 193.0, 0.0, 1.0, 1.0, 0.0, 0.0, 1.0, 1.0, 256.0, 1.0, 1.608195590243544E9, 2020-12-17 14:44:50.243
117.0, 40020.86328125, 31954.208984375, 29049.578125, 26704.232421875, 26726.650390625, 34662.03515625, 33656.62890625, 27514.259765625, 0.0, 0.0, 0.0, 193.0, 0.0, 1.0, 1.0, 0.0, 0.0, 1.0, 1.0, 256.0, 1.0, 1.608195590243546E9, 2020-12-17 14:44:50.243
118.0, 40026.33984375, 31951.416015625, 29051.365234375, 26709.126953125, 26729.244140625, 34669.9453125, 33648.40625, 27508.89453125, 0.0, 0.0, 0.0, 193.0, 0.0, 1.0, 1.0, 0.0, 0.0, 1.0, 1.0, 256.0, 1.0, 1.608195590243547E9, 2020-12-17 14:44:50.243
119.0, 40149.1171875, 32091.470703125, 29196.47265625, 26856.0, 26839.03515625, 34796.25390625, 33773.6171875, 27623.916015625, 0.0, 0.0, 0.0, 193.0, 0.0, 1.0, 1.0, 0.0, 0.0, 1.0, 1.0, 256.0, 1.0, 1.608195590243548E9, 2020-12-17 14:44:50.243
120.0, 40248.13671875, 32182.509765625, 29293.234375, 26972.4296875, 26891.740234375, 34927.50390625, 33872.03515625, 27702.638671875, 0.0, 0.0, 0.0, 193.0, 0.0, 1.0, 1.0, 0.0, 0.0, 1.0, 1.0, 256.0, 1.0, 1.608195590302406E9, 2020-12-17 14:44:50.302
121.0, 40188.61328125, 32090.0625, 29202.375, 26892.166015625, 26882.240234375, 34854.70703125, 33807.81640625, 27648.5703125, 0.0, 0.0, 0.0, 193.0, 0.0, 1.0, 1.0, 0.0, 0.0, 1.0, 1.0, 256.0, 1.0, 1.608195590302421E9, 2020-12-17 14:44:50.302
122.0, 40050.94921875, 31970.50390625, 29080.46875, 26745.26953125, 26774.1484375, 34729.9375, 33714.5, 27544.568359375, 0.0, 0.0, 0.0, 193.0, 0.0, 1.0, 1.0, 0.0, 0.0, 1.0, 1.0, 256.0, 1.0, 1.608195590302428E9, 2020-12-17 14:44:50.302
123.0, 39987.76171875, 31939.76953125, 29052.974609375, 26708.388671875, 26725.623046875, 34699.29296875, 33674.9375, 27512.158203125, 0.0, 0.0, 0.0, 193.0, 0.0, 1.0, 1.0, 0.0, 0.0, 1.0, 1.0, 256.0, 1.0, 1.60819559030245E9, 2020-12-17 14:44:50.302
124.0, 40095.2265625, 32045.337890625, 29161.359375, 26840.041015625, 26829.982421875, 34833.08984375, 33783.7890625, 27632.544921875, 0.0, 0.0, 0.0, 193.0, 0.0, 1.0, 1.0, 0.0, 0.0, 1.0, 1.0, 256.0, 1.0, 1.608195590302457E9, 2020-12-17 14:44:50.302
125.0, 40189.41796875, 32142.56640625, 29250.341796875, 26946.0546875, 26919.791015625, 34975.8515625, 33868.63671875, 27733.126953125, 0.0, 0.0, 0.0, 193.0, 0.0, 1.0, 1.0, 0.0, 0.0, 1.0, 1.0, 256.0, 1.0, 1.608195590302464E9, 2020-12-17 14:44:50.302
126.0, 40167.04296875, 32101.193359375, 29215.94140625, 26886.5546875, 26865.990234375, 34858.125, 33849.34765625, 27688.1328125, 0.0, 0.0, 0.0, 193.0, 0.0, 1.0, 1.0, 0.0, 0.0, 1.0, 1.0, 256.0, 1.0, 1.608195590302471E9, 2020-12-17 14:44:50.302
127.0, 40077.52734375, 31988.49609375, 29110.21875, 26780.33984375, 26784.09375, 34747.4609375, 33764.7890625, 27576.6640625, 0.0, 0.0, 0.0, 193.0, 0.0, 1.0, 1.0, 0.0, 0.0, 1.0, 1.0, 256.0, 1.0, 1.608195590302478E9, 2020-12-17 14:44:50.302
128.0, 40034.25390625, 31945.380859375, 29069.134765625, 26753.025390625, 26773.72265625, 34769.43359375, 33736.984375, 27551.048828125, 0.0, 0.0, 0.0, 193.0, 0.0, 1.0, 1.0, 0.0, 0.0, 1.0, 1.0, 256.0, 1.0, 1.608195590302485E9, 2020-12-17 14:44:50.302
129.0, 40129.89453125, 32073.388671875, 29194.103515625, 26865.275390625, 26805.798828125, 34849.0078125, 33819.328125, 27660.931640625, 0.0, 0.0, 0.0, 193.0, 0.0, 1.0, 1.0, 0.0, 0.0, 1.0, 1.0, 256.0, 1.0, 1.608195590302492E9, 2020-12-17 14:44:50.302
130.0, 40196.97265625, 32157.07421875, 29269.853515625, 26960.60546875, 26866.1484375, 34958.6171875, 33877.265625, 27715.9609375, 0.0, 0.0, 0.0, 193.0, 0.0, 1.0, 1.0, 0.0, 0.0, 1.0, 1.0, 256.0, 1.0, 1.608195590302499E9, 2020-12-17 14:44:50.302
131.0, 40112.3046875, 32066.83984375, 29183.3984375, 26861.005859375, 26819.857421875, 34868.453125, 33829.453125, 27651.296875, 0.0, 0.0, 0.0, 193.0, 0.0, 1.0, 1.0, 0.0, 0.0, 1.0, 1.0, 256.0, 1.0, 1.608195590302506E9, 2020-12-17 14:44:50.302
132.0, 40052.06640625, 31981.8359375, 29101.724609375, 26785.748046875, 26779.423828125, 34799.6328125, 33751.82421875, 27547.47265625, 0.0, 0.0, 0.0, 193.0, 0.0, 1.0, 1.0, 0.0, 0.0, 1.0, 1.0, 256.0, 1.0, 1.608195590302514E9, 2020-12-17 14:44:50.302
133.0, 40030.96875, 31956.646484375, 29075.416015625, 26765.38671875, 26768.58203125, 34765.140625, 33698.60546875, 27517.857421875, 0.0, 0.0, 0.0, 193.0, 0.0, 1.0, 1.0, 0.0, 0.0, 1.0, 1.0, 256.0, 1.0, 1.608195590302521E9, 2020-12-17 14:44:50.302
134.0, 40130.9921875, 32046.947265625, 29158.54296875, 26863.533203125, 26855.015625, 34849.40625, 33772.09765625, 27625.146484375, 0.0, 0.0, 0.0, 193.0, 0.0, 1.0, 1.0, 0.0, 0.0, 1.0, 1.0, 256.0, 1.0, 1.608195590302528E9, 2020-12-17 14:44:50.302
135.0, 40143.484375, 32109.017578125, 29219.71875, 26890.130859375, 26820.662109375, 34860.96484375, 33839.46875, 27704.248046875, 0.0, 0.0, 0.0, 193.0, 0.0, 1.0, 1.0, 0.0, 0.0, 1.0, 1.0, 256.0, 1.0, 1.60819559036119E9, 2020-12-17 14:44:50.361
136.0, 40073.43359375, 32023.65625, 29135.431640625, 26807.943359375, 26749.962890625, 34788.72265625, 33733.83203125, 27611.421875, 0.0, 0.0, 0.0, 193.0, 0.0, 1.0, 1.0, 0.0, 0.0, 1.0, 1.0, 256.0, 1.0, 1.608195590361195E9, 2020-12-17 14:44:50.361
137.0, 40043.08203125, 31948.30859375, 29065.111328125, 26749.78515625, 26730.673828125, 34745.76171875, 33683.7421875, 27534.21875, 0.0, 0.0, 0.0, 193.0, 0.0, 1.0, 1.0, 0.0, 0.0, 1.0, 1.0, 256.0, 1.0, 1.608195590361197E9, 2020-12-17 14:44:50.361
138.0, 40031.703125, 31953.78515625, 29063.615234375, 26742.431640625, 26746.498046875, 34742.69921875, 33663.69140625, 27528.541015625, 0.0, 0.0, 0.0, 193.0, 0.0, 1.0, 1.0, 0.0, 0.0, 1.0, 1.0, 256.0, 1.0, 1.608195590361199E9, 2020-12-17 14:44:50.361
139.0, 40094.3125, 32047.83984375, 29157.626953125, 26820.236328125, 26792.029296875, 34817.06640625, 33765.50390625, 27623.044921875, 0.0, 0.0, 0.0, 193.0, 0.0, 1.0, 1.0, 0.0, 0.0, 1.0, 1.0, 256.0, 1.0, 1.608195590361201E9, 2020-12-17 14:44:50.361
140.0, 40189.08203125, 32137.29296875, 29249.46875, 26929.693359375, 26849.787109375, 34915.390625, 33863.0703125, 27710.552734375, 0.0, 0.0, 0.0, 193.0, 0.0, 1.0, 1.0, 0.0, 0.0, 1.0, 1.0, 256.0, 1.0, 1.608195590361203E9, 2020-12-17 14:44:50.361
141.0, 40145.3203125, 32069.74609375, 29188.26953125, 26875.9375, 26803.16015625, 34861.43359375, 33832.2265625, 27661.087890625, 0.0, 0.0, 0.0, 193.0, 0.0, 1.0, 1.0, 0.0, 0.0, 1.0, 1.0, 256.0, 1.0, 1.608195590361204E9, 2020-12-17 14:44:50.361
142.0, 40038.3671875, 31965.20703125, 29071.080078125, 26735.099609375, 26739.4140625, 34757.765625, 33691.09765625, 27556.4375, 0.0, 0.0, 0.0, 193.0, 0.0, 1.0, 1.0, 0.0, 0.0, 1.0, 1.0, 256.0, 1.0, 1.608195590361206E9, 2020-12-17 14:44:50.361
143.0, 39995.76171875, 31907.404296875, 29005.72265625, 26656.890625, 26701.482421875, 34670.4140625, 33614.69921875, 27507.75390625, 0.0, 0.0, 0.0, 193.0, 0.0, 1.0, 1.0, 0.0, 0.0, 1.0, 1.0, 256.0, 1.0, 1.608195590361208E9, 2020-12-17 14:44:50.361
144.0, 40099.921875, 32027.76953125, 29124.2109375, 26782.841796875, 26760.201171875, 34758.0546875, 33707.50390625, 27591.08203125, 0.0, 0.0, 0.0, 193.0, 0.0, 1.0, 1.0, 0.0, 0.0, 1.0, 1.0, 256.0, 1.0, 1.60819559036121E9, 2020-12-17 14:44:50.361
145.0, 40175.0, 32127.14453125, 29224.123046875, 26888.431640625, 26811.876953125, 34863.71484375, 33809.3828125, 27692.759765625, 0.0, 0.0, 0.0, 193.0, 0.0, 1.0, 1.0, 0.0, 0.0, 1.0, 1.0, 256.0, 1.0, 1.608195590361212E9, 2020-12-17 14:44:50.361
146.0, 40102.55859375, 32068.873046875, 29181.876953125, 26846.09765625, 26743.548828125, 34854.953125, 33813.359375, 27664.171875, 0.0, 0.0, 0.0, 193.0, 0.0, 1.0, 1.0, 0.0, 0.0, 1.0, 1.0, 256.0, 1.0, 1.60819559036122E9, 2020-12-17 14:44:50.361
147.0, 40047.8203125, 31952.197265625, 29071.86328125, 26756.265625, 26748.353515625, 34761.72265625, 33715.1484375, 27583.951171875, 0.0, 0.0, 0.0, 193.0, 0.0, 1.0, 1.0, 0.0, 0.0, 1.0, 1.0, 256.0, 1.0, 1.608195590361222E9, 2020-12-17 14:44:50.361
148.0, 40052.3359375, 31922.4921875, 29027.046875, 26698.93359375, 26741.111328125, 34699.83203125, 33667.515625, 27561.578125, 0.0, 0.0, 0.0, 193.0, 0.0, 1.0, 1.0, 0.0, 0.0, 1.0, 1.0, 256.0, 1.0, 1.608195590361224E9, 2020-12-17 14:44:50.361
149.0, 40116.015625, 32036.150390625, 29137.375, 26803.607421875, 26776.517578125, 34776.25, 33746.8203125, 27648.435546875, 0.0, 0.0, 0.0, 193.0, 0.0, 1.0, 1.0, 0.0, 0.0, 1.0, 1.0, 256.0, 1.0, 1.608195590361225E9, 2020-12-17 14:44:50.361
150.0, 40167.37890625, 32119.9921875, 29221.75390625, 26877.658203125, 26810.0, 34861.6796875, 33801.671875, 27684.9375, 0.0, 0.0, 0.0, 193.0, 0.0, 1.0, 1.0, 0.0, 0.0, 1.0, 1.0, 256.0, 1.0, 1.608195590421767E9, 2020-12-17 14:44:50.421
151.0, 40089.83984375, 32036.486328125, 29133.21875, 26766.97265625, 26724.7734375, 34745.13671875, 33725.7421875, 27608.3828125, 0.0, 0.0, 0.0, 193.0, 0.0, 1.0, 1.0, 0.0, 0.0, 1.0, 1.0, 256.0, 1.0, 1.608195590421786E9, 2020-12-17 14:44:50.421
152.0, 40028.12890625, 31927.140625, 29030.01953125, 26681.03125, 26702.98046875, 34647.19140625, 33647.375, 27529.369140625, 0.0, 0.0, 0.0, 193.0, 0.0, 1.0, 1.0, 0.0, 0.0, 1.0, 1.0, 256.0, 1.0, 1.608195590421794E9, 2020-12-17 14:44:50.421
153.0, 40008.14453125, 31914.22265625, 29020.921875, 26675.62109375, 26689.412109375, 34656.40234375, 33617.42578125, 27495.21484375, 0.0, 0.0, 0.0, 193.0, 0.0, 1.0, 1.0, 0.0, 0.0, 1.0, 1.0, 256.0, 1.0, 1.608195590421803E9, 2020-12-17 14:44:50.421
154.0, 40093.05859375, 32022.13671875, 29128.501953125, 26785.390625, 26749.494140625, 34761.3203125, 33733.49609375, 27602.123046875, 0.0, 0.0, 0.0, 193.0, 0.0, 1.0, 1.0, 0.0, 0.0, 1.0, 1.0, 256.0, 1.0, 1.608195590421811E9, 2020-12-17 14:44:50.421
155.0, 40176.90234375, 32107.20703125, 29209.728515625, 26883.716796875, 26804.970703125, 34854.1015625, 33818.48046875, 27685.205078125, 0.0, 0.0, 0.0, 193.0, 0.0, 1.0, 1.0, 0.0, 0.0, 1.0, 1.0, 256.0, 1.0, 1.60819559042182E9, 2020-12-17 14:44:50.421
156.0, 40134.8125, 32046.1875, 29149.9140625, 26826.048828125, 26793.392578125, 34821.8046875, 33756.07421875, 27643.720703125, 0.0, 0.0, 0.0, 193.0, 0.0, 1.0, 1.0, 0.0, 0.0, 1.0, 1.0, 256.0, 1.0, 1.608195590421829E9, 2020-12-17 14:44:50.421
157.0, 40061.38671875, 31960.712890625, 29068.576171875, 26736.6640625, 26737.267578125, 34759.64453125, 33664.7890625, 27553.955078125, 0.0, 0.0, 0.0, 193.0, 0.0, 1.0, 1.0, 0.0, 0.0, 1.0, 1.0, 256.0, 1.0, 1.608195590421837E9, 2020-12-17 14:44:50.421
158.0, 40030.1640625, 31950.119140625, 29059.94921875, 26713.484375, 26708.09765625, 34740.890625, 33667.5390625, 27536.8125, 0.0, 0.0, 0.0, 193.0, 0.0, 1.0, 1.0, 0.0, 0.0, 1.0, 1.0, 256.0, 1.0, 1.608195590421846E9, 2020-12-17 14:44:50.421
159.0, 40103.69921875, 32038.072265625, 29142.62890625, 26797.638671875, 26749.091796875, 34787.47265625, 33736.6953125, 27617.12109375, 0.0, 0.0, 0.0, 193.0, 0.0, 1.0, 1.0, 0.0, 0.0, 1.0, 1.0, 256.0, 1.0, 1.608195590421855E9, 2020-12-17 14:44:50.421
160.0, 40148.89453125, 32091.248046875, 29186.861328125, 26837.470703125, 26784.005859375, 34795.0703125, 33770.7578125, 27684.19921875, 0.0, 0.0, 0.0, 193.0, 0.0, 1.0, 1.0, 0.0, 0.0, 1.0, 1.0, 256.0, 1.0, 1.608195590421863E9, 2020-12-17 14:44:50.421
161.0, 40078.75390625, 32026.494140625, 29135.162109375, 26772.560546875, 26693.4140625, 34718.94140625, 33761.6171875, 27655.791015625, 0.0, 0.0, 0.0, 193.0, 0.0, 1.0, 1.0, 0.0, 0.0, 1.0, 1.0, 256.0, 1.0, 1.608195590421872E9, 2020-12-17 14:44:50.421
162.0, 40063.21875, 31971.5546875, 29080.46875, 26752.33203125, 26696.6328125, 34739.52734375, 33709.0234375, 27557.486328125, 0.0, 0.0, 0.0, 193.0, 0.0, 1.0, 1.0, 0.0, 0.0, 1.0, 1.0, 256.0, 1.0, 1.608195590421881E9, 2020-12-17 14:44:50.421
163.0, 40059.8671875, 31944.732421875, 29057.310546875, 26747.125, 26725.935546875, 34748.421875, 33674.82421875, 27532.2734375, 0.0, 0.0, 0.0, 193.0, 0.0, 1.0, 1.0, 0.0, 0.0, 1.0, 1.0, 256.0, 1.0, 1.608195590421919E9, 2020-12-17 14:44:50.421
164.0, 40121.3359375, 32046.208984375, 29155.255859375, 26835.705078125, 26765.431640625, 34858.9765625, 33745.45703125, 27626.083984375, 0.0, 0.0, 0.0, 193.0, 0.0, 1.0, 1.0, 0.0, 0.0, 1.0, 1.0, 256.0, 1.0, 1.608195590421929E9, 2020-12-17 14:44:50.421
165.0, 40185.05859375, 32127.3671875, 29224.369140625, 26883.24609375, 26804.724609375, 34866.171875, 33803.94921875, 27705.611328125, 0.0, 0.0, 0.0, 193.0, 0.0, 1.0, 1.0, 0.0, 0.0, 1.0, 1.0, 256.0, 1.0, 1.608195590483333E9, 2020-12-17 14:44:50.483
166.0, 40140.82421875, 32072.919921875, 29170.43359375, 26829.357421875, 26760.603515625, 34811.85546875, 33752.921875, 27633.86328125, 0.0, 0.0, 0.0, 193.0, 0.0, 1.0, 1.0, 0.0, 0.0, 1.0, 1.0, 256.0, 1.0, 1.608195590483339E9, 2020-12-17 14:44:50.483
167.0, 40057.58984375, 31956.646484375, 29060.216796875, 26730.361328125, 26689.234375, 34731.66015625, 33672.85546875, 27540.275390625, 0.0, 0.0, 0.0, 193.0, 0.0, 1.0, 1.0, 0.0, 0.0, 1.0, 1.0, 256.0, 1.0, 1.60819559048334E9, 2020-12-17 14:44:50.483
168.0, 40024.62109375, 31940.484375, 29049.689453125, 26706.84765625, 26674.59375, 34712.6171875, 33662.21875, 27514.080078125, 0.0, 0.0, 0.0, 193.0, 0.0, 1.0, 1.0, 0.0, 0.0, 1.0, 1.0, 256.0, 1.0, 1.608195590483342E9, 2020-12-17 14:44:50.483
169.0, 40102.3828125, 32057.318359375, 29170.701171875, 26828.708984375, 26729.689453125, 34817.82421875, 33798.16015625, 27648.078125, 0.0, 0.0, 0.0, 193.0, 0.0, 1.0, 1.0, 0.0, 0.0, 1.0, 1.0, 256.0, 1.0, 1.608195590483343E9, 2020-12-17 14:44:50.483
170.0, 40209.53515625, 32148.6015625, 29252.978515625, 26919.43359375, 26853.18359375, 34872.38671875, 33838.59375, 27709.748046875, 0.0, 0.0, 0.0, 193.0, 0.0, 1.0, 1.0, 0.0, 0.0, 1.0, 1.0, 256.0, 1.0, 1.60819559048335E9, 2020-12-17 14:44:50.483
171.0, 40157.546875, 32078.150390625, 29177.318359375, 26828.931640625, 26792.41015625, 34811.8125, 33761.86328125, 27640.30078125, 0.0, 0.0, 0.0, 193.0, 0.0, 1.0, 1.0, 0.0, 0.0, 1.0, 1.0, 256.0, 1.0, 1.608195590483351E9, 2020-12-17 14:44:50.483
172.0, 40044.48828125, 31969.54296875, 29073.875, 26712.591796875, 26645.08984375, 34663.44140625, 33684.34765625, 27545.796875, 0.0, 0.0, 0.0, 193.0, 0.0, 1.0, 1.0, 0.0, 0.0, 1.0, 1.0, 256.0, 1.0, 1.608195590483352E9, 2020-12-17 14:44:50.483
173.0, 40017.6015625, 31936.775390625, 29044.951171875, 26704.119140625, 26639.880859375, 34714.73828125, 33677.328125, 27542.130859375, 0.0, 0.0, 0.0, 193.0, 0.0, 1.0, 1.0, 0.0, 0.0, 1.0, 1.0, 256.0, 1.0, 1.608195590483354E9, 2020-12-17 14:44:50.483
174.0, 40102.828125, 32035.994140625, 29140.326171875, 26803.943359375, 26721.46484375, 34799.09375, 33750.88671875, 27630.17578125, 0.0, 0.0, 0.0, 193.0, 0.0, 1.0, 1.0, 0.0, 0.0, 1.0, 1.0, 256.0, 1.0, 1.608195590483355E9, 2020-12-17 14:44:50.483
175.0, 40202.94140625, 32120.7734375, 29221.484375, 26894.087890625, 26812.32421875, 34870.30859375, 33782.55859375, 27667.63671875, 0.0, 0.0, 0.0, 193.0, 0.0, 1.0, 1.0, 0.0, 0.0, 1.0, 1.0, 256.0, 1.0, 1.608195590483357E9, 2020-12-17 14:44:50.483
176.0, 40165.97265625, 32091.671875, 29205.4140625, 26884.185546875, 26790.486328125, 34889.8203125, 33791.12109375, 27643.921875, 0.0, 0.0, 0.0, 193.0, 0.0, 1.0, 1.0, 0.0, 0.0, 1.0, 1.0, 256.0, 1.0, 1.608195590483358E9, 2020-12-17 14:44:50.483
177.0, 40087.96484375, 31990.060546875, 29104.65234375, 26774.953125, 26745.91796875, 34767.64453125, 33731.75390625, 27575.97265625, 0.0, 0.0, 0.0, 193.0, 0.0, 1.0, 1.0, 0.0, 0.0, 1.0, 1.0, 256.0, 1.0, 1.608195590483359E9, 2020-12-17 14:44:50.483
178.0, 40044.22265625, 31966.81640625, 29076.51171875, 26719.05078125, 26691.46875, 34696.09765625, 33724.48828125, 27572.306640625, 0.0, 0.0, 0.0, 193.0, 0.0, 1.0, 1.0, 0.0, 0.0, 1.0, 1.0, 256.0, 1.0, 1.608195590483361E9, 2020-12-17 14:44:50.483
179.0, 40120.0390625, 32053.830078125, 29161.470703125, 26810.783203125, 26698.845703125, 34804.8828125, 33760.69921875, 27633.21484375, 0.0, 0.0, 0.0, 193.0, 0.0, 1.0, 1.0, 0.0, 0.0, 1.0, 1.0, 256.0, 1.0, 1.608195590483362E9, 2020-12-17 14:44:50.483
180.0, 40173.66015625, 32090.80078125, 29185.6328125, 26844.154296875, 26785.435546875, 34793.3046875, 33755.0, 27660.037109375, 0.0, 0.0, 0.0, 193.0, 0.0, 1.0, 1.0, 0.0, 0.0, 1.0, 1.0, 256.0, 1.0, 1.608195590542079E9, 2020-12-17 14:44:50.542
181.0, 40119.2578125, 32010.580078125, 29084.849609375, 26735.724609375, 26717.91015625, 34662.2578125, 33635.0390625, 27583.458984375, 0.0, 0.0, 0.0, 193.0, 0.0, 1.0, 1.0, 0.0, 0.0, 1.0, 1.0, 256.0, 1.0, 1.608195590542084E9, 2020-12-17 14:44:50.542
182.0, 40068.80859375, 31978.169921875, 29081.83203125, 26726.001953125, 26707.0703125, 34688.609375, 33677.03515625, 27544.142578125, 0.0, 0.0, 0.0, 193.0, 0.0, 1.0, 1.0, 0.0, 0.0, 1.0, 1.0, 256.0, 1.0, 1.608195590542086E9, 2020-12-17 14:44:50.542
183.0, 40051.8203125, 31978.662109375, 29098.39453125, 26738.564453125, 26701.75, 34713.890625, 33733.23046875, 27563.0078125, 0.0, 0.0, 0.0, 193.0, 0.0, 1.0, 1.0, 0.0, 0.0, 1.0, 1.0, 256.0, 1.0, 1.608195590542088E9, 2020-12-17 14:44:50.542
184.0, 40115.8125, 32066.34765625, 29172.556640625, 26802.2890625, 26691.826171875, 34760.1796875, 33798.765625, 27632.72265625, 0.0, 0.0, 0.0, 193.0, 0.0, 1.0, 1.0, 0.0, 0.0, 1.0, 1.0, 256.0, 1.0, 1.60819559054209E9, 2020-12-17 14:44:50.542
185.0, 40173.01171875, 32118.2265625, 29215.3828125, 26863.15234375, 26735.27734375, 34811.2109375, 33813.58203125, 27697.744140625, 0.0, 0.0, 0.0, 193.0, 0.0, 1.0, 1.0, 0.0, 0.0, 1.0, 1.0, 256.0, 1.0, 1.608195590542092E9, 2020-12-17 14:44:50.542
186.0, 40163.265625, 32082.083984375, 29185.119140625, 26844.869140625, 26770.7734375, 34843.1953125, 33764.43359375, 27646.0, 0.0, 0.0, 0.0, 193.0, 0.0, 1.0, 1.0, 0.0, 0.0, 1.0, 1.0, 256.0, 1.0, 1.608195590542093E9, 2020-12-17 14:44:50.542
187.0, 40085.2578125, 31993.97265625, 29100.62890625, 26755.126953125, 26685.658203125, 34735.79296875, 33681.26171875, 27544.92578125, 0.0, 0.0, 0.0, 193.0, 0.0, 1.0, 1.0, 0.0, 0.0, 1.0, 1.0, 256.0, 1.0, 1.608195590542095E9, 2020-12-17 14:44:50.542
188.0, 40034.8125, 31943.099609375, 29045.576171875, 26701.884765625, 26675.0625, 34670.39453125, 33649.38671875, 27514.169921875, 0.0, 0.0, 0.0, 193.0, 0.0, 1.0, 1.0, 0.0, 0.0, 1.0, 1.0, 256.0, 1.0, 1.608195590542097E9, 2020-12-17 14:44:50.542
189.0, 40108.6171875, 32014.71484375, 29113.771484375, 26775.287109375, 26769.185546875, 34742.96875, 33725.8515625, 27606.236328125, 0.0, 0.0, 0.0, 193.0, 0.0, 1.0, 1.0, 0.0, 0.0, 1.0, 1.0, 256.0, 1.0, 1.608195590542099E9, 2020-12-17 14:44:50.542
190.0, 40181.9765625, 32118.830078125, 29214.935546875, 26857.744140625, 26782.015625, 34807.609375, 33829.98828125, 27709.546875, 0.0, 0.0, 0.0, 193.0, 0.0, 1.0, 1.0, 0.0, 0.0, 1.0, 1.0, 256.0, 1.0, 1.608195590542101E9, 2020-12-17 14:44:50.542
191.0, 40163.15625, 32095.60546875, 29201.501953125, 26858.033203125, 26743.123046875, 34840.69140625, 33796.6171875, 27654.986328125, 0.0, 0.0, 0.0, 193.0, 0.0, 1.0, 1.0, 0.0, 0.0, 1.0, 1.0, 256.0, 1.0, 1.608195590542103E9, 2020-12-17 14:44:50.542
192.0, 40072.00390625, 31976.091796875, 29081.228515625, 26740.017578125, 26656.30859375, 34745.47265625, 33694.08984375, 27564.259765625, 0.0, 0.0, 0.0, 193.0, 0.0, 1.0, 1.0, 0.0, 0.0, 1.0, 1.0, 256.0, 1.0, 1.608195590542105E9, 2020-12-17 14:44:50.542
193.0, 40027.19140625, 31949.224609375, 29059.078125, 26705.998046875, 26637.869140625, 34681.81640625, 33696.57421875, 27529.056640625, 0.0, 0.0, 0.0, 193.0, 0.0, 1.0, 1.0, 0.0, 0.0, 1.0, 1.0, 256.0, 1.0, 1.608195590542113E9, 2020-12-17 14:44:50.542
194.0, 40104.01171875, 32019.9453125, 29119.8515625, 26773.56640625, 26765.744140625, 34720.73046875, 33723.39453125, 27618.6640625, 0.0, 0.0, 0.0, 193.0, 0.0, 1.0, 1.0, 0.0, 0.0, 1.0, 1.0, 256.0, 1.0, 1.608195590542115E9, 2020-12-17 14:44:50.542
195.0, 40182.87109375, 32110.6484375, 29204.876953125, 26871.333984375, 26822.62890625, 34837.359375, 33782.06640625, 27686.166015625, 0.0, 0.0, 0.0, 193.0, 0.0, 1.0, 1.0, 0.0, 0.0, 1.0, 1.0, 256.0, 1.0, 1.608195590601332E9, 2020-12-17 14:44:50.601
196.0, 40133.1796875, 32057.162109375, 29152.41796875, 26809.865234375, 26710.826171875, 34780.296875, 33716.33203125, 27615.4453125, 0.0, 0.0, 0.0, 193.0, 0.0, 1.0, 1.0, 0.0, 0.0, 1.0, 1.0, 256.0, 1.0, 1.608195590601342E9, 2020-12-17 14:44:50.601
197.0, 40057.85546875, 31963.1953125, 29067.927734375, 26724.416015625, 26667.84375, 34720.37109375, 33673.2578125, 27547.361328125, 0.0, 0.0, 0.0, 193.0, 0.0, 1.0, 1.0, 0.0, 0.0, 1.0, 1.0, 256.0, 1.0, 1.608195590601346E9, 2020-12-17 14:44:50.601
198.0, 40036.109375, 31953.962890625, 29067.615234375, 26721.083984375, 26648.62109375, 34728.75390625, 33731.0625, 27554.201171875, 0.0, 0.0, 0.0, 193.0, 0.0, 1.0, 1.0, 0.0, 0.0, 1.0, 1.0, 256.0, 1.0, 1.608195590601349E9, 2020-12-17 14:44:50.601
199.0, 40132.9375, 32044.8671875, 29152.91015625, 26821.443359375, 26748.734375, 34793.52734375, 33765.796875, 27624.83203125, 0.0, 0.0, 0.0, 193.0, 0.0, 1.0, 1.0, 0.0, 0.0, 1.0, 1.0, 256.0, 1.0, 1.608195590601353E9, 2020-12-17 14:44:50.601
200.0, 40180.25390625, 32107.9453125, 29211.13671875, 26873.8359375, 26779.087890625, 34851.44140625, 33797.109375, 27694.548828125, 0.0, 0.0, 0.0, 193.0, 0.0, 1.0, 1.0, 0.0, 0.0, 1.0, 1.0, 256.0, 1.0, 1.608195590601356E9, 2020-12-17 14:44:50.601
201.0, 40128.84375, 32049.44921875, 29146.451171875, 26801.953125, 26737.8046875, 34784.90234375, 33742.9296875, 27647.7890625, 0.0, 0.0, 0.0, 193.0, 0.0, 1.0, 1.0, 0.0, 0.0, 1.0, 1.0, 256.0, 1.0, 1.60819559060136E9, 2020-12-17 14:44:50.601
202.0, 40052.3359375, 31957.361328125, 29053.82421875, 26708.90234375, 26693.2578125, 34713.48828125, 33652.8984375, 27544.412109375, 0.0, 0.0, 0.0, 193.0, 0.0, 1.0, 1.0, 0.0, 0.0, 1.0, 1.0, 256.0, 1.0, 1.608195590601363E9, 2020-12-17 14:44:50.601
203.0, 40058.48046875, 31955.572265625, 29059.009765625, 26713.126953125, 26686.529296875, 34703.67578125, 33644.44921875, 27520.337890625, 0.0, 0.0, 0.0, 193.0, 0.0, 1.0, 1.0, 0.0, 0.0, 1.0, 1.0, 256.0, 1.0, 1.608195590601367E9, 2020-12-17 14:44:50.601
204.0, 40127.55078125, 32034.5859375, 29137.732421875, 26794.623046875, 26710.7578125, 34763.84765625, 33722.14453125, 27599.91015625, 0.0, 0.0, 0.0, 193.0, 0.0, 1.0, 1.0, 0.0, 0.0, 1.0, 1.0, 256.0, 1.0, 1.60819559060137E9, 2020-12-17 14:44:50.601
205.0, 40161.390625, 32075.9140625, 29167.169921875, 26819.87890625, 26736.060546875, 34784.74609375, 33770.69140625, 27665.177734375, 0.0, 0.0, 0.0, 193.0, 0.0, 1.0, 1.0, 0.0, 0.0, 1.0, 1.0, 256.0, 1.0, 1.608195590601374E9, 2020-12-17 14:44:50.601
206.0, 40155.2421875, 32054.5234375, 29151.255859375, 26819.87890625, 26740.93359375, 34815.09765625, 33735.12890625, 27624.654296875, 0.0, 0.0, 0.0, 193.0, 0.0, 1.0, 1.0, 0.0, 0.0, 1.0, 1.0, 256.0, 1.0, 1.608195590601377E9, 2020-12-17 14:44:50.601
207.0, 40069.234375, 31972.515625, 29085.384765625, 26751.662109375, 26693.078125, 34752.24609375, 33731.53125, 27592.177734375, 0.0, 0.0, 0.0, 193.0, 0.0, 1.0, 1.0, 0.0, 0.0, 1.0, 1.0, 256.0, 1.0, 1.608195590601381E9, 2020-12-17 14:44:50.601
208.0, 40037.16015625, 31940.0390625, 29047.052734375, 26700.96875, 26665.4296875, 34711.41015625, 33667.26953125, 27545.259765625, 0.0, 0.0, 0.0, 193.0, 0.0, 1.0, 1.0, 0.0, 0.0, 1.0, 1.0, 256.0, 1.0, 1.608195590601385E9, 2020-12-17 14:44:50.601
209.0, 40122.51953125, 32041.716796875, 29151.033203125, 26814.716796875, 26752.7578125, 34833.984375, 33757.76953125, 27640.658203125, 0.0, 0.0, 0.0, 193.0, 0.0, 1.0, 1.0, 0.0, 0.0, 1.0, 1.0, 256.0, 1.0, 1.608195590601388E9, 2020-12-17 14:44:50.601
210.0, 40191.72265625, 32131.591796875, 29236.6171875, 26899.33984375, 26785.45703125, 34899.83203125, 33815.953125, 27694.435546875, 0.0, 0.0, 0.0, 193.0, 0.0, 1.0, 1.0, 0.0, 0.0, 1.0, 1.0, 256.0, 1.0, 1.608195590661172E9, 2020-12-17 14:44:50.661
211.0, 40136.3984375, 32046.3203125, 29151.92578125, 26824.439453125, 26757.228515625, 34825.515625, 33765.68359375, 27655.8125, 0.0, 0.0, 0.0, 193.0, 0.0, 1.0, 1.0, 0.0, 0.0, 1.0, 1.0, 256.0, 1.0, 1.60819559066118E9, 2020-12-17 14:44:50.661
212.0, 40090.17578125, 31970.146484375, 29077.115234375, 26739.771484375, 26724.013671875, 34750.0546875, 33723.328125, 27578.7890625, 0.0, 0.0, 0.0, 193.0, 0.0, 1.0, 1.0, 0.0, 0.0, 1.0, 1.0, 256.0, 1.0, 1.608195590661184E9, 2020-12-17 14:44:50.661
213.0, 40056.13671875, 31963.88671875, 29076.9140625, 26731.2109375, 26691.9609375, 34739.1484375, 33736.08984375, 27584.01953125, 0.0, 0.0, 0.0, 193.0, 0.0, 1.0, 1.0, 0.0, 0.0, 1.0, 1.0, 256.0, 1.0, 1.608195590661187E9, 2020-12-17 14:44:50.661
