%OpenBCI Raw EEG Data
%Number of channels = 8
%Sample Rate = 250 Hz
%Board = OpenBCI_GUI$BoardCytonSerial
Sample Index, EXG Channel 0, EXG Channel 1, EXG Channel 2, EXG Channel 3, EXG Channel 4, EXG Channel 5, EXG Channel 6, EXG Channel 7, Accel Channel 0, Accel Channel 1, Accel Channel 2, Other, Other, Other, Other, Other, Other, Other, Analog Channel 0, Analog Channel 1, Analog Channel 2, Timestamp, Timestamp (Formatted)
254.0, 40371.18359375, 39769.36328125, 28345.654296875, 29773.931640625, 28925.435546875, 33147.43359375, 34263.8359375, 25954.77734375, 0.0, 0.0, 0.0, 193.0, 0.0, 1.0, 1.0, 0.0, 0.0, 1.0, 1.0, 256.0, 1.0, 1.608194747596836E9, 2020-12-17 14:30:47.596
255.0, 40198.0, 39554.29296875, 28131.591796875, 29559.5546875, 28750.779296875, 32944.3671875, 34079.97265625, 25759.78125, 0.0, 0.0, 0.0, 193.0, 0.0, 1.0, 1.0, 0.0, 0.0, 1.0, 1.0, 256.0, 1.0, 1.608194747596841E9, 2020-12-17 14:30:47.596
0.0, 39894.01953125, 39191.6796875, 27782.79296875, 29206.95703125, 28483.2734375, 32619.173828125, 33780.34765625, 25427.701171875, 0.0, 0.0, 0.0, 193.0, 0.0, 1.0, 1.0, 0.0, 0.0, 1.0, 1.0, 256.0, 1.0, 1.608194747596844E9, 2020-12-17 14:30:47.596
1.0, 39783.46484375, 39072.92578125, 27671.302734375, 29080.35546875, 28410.2734375, 32512.80078125, 33680.234375, 25317.015625, 0.0, 0.0, 0.0, 193.0, 0.0, 1.0, 1.0, 0.0, 0.0, 1.0, 1.0, 256.0, 1.0, 1.608194747596848E9, 2020-12-17 14:30:47.596
2.0, 40077.68359375, 39433.7734375, 28024.28125, 29431.3671875, 28687.79296875, 32845.6875, 33973.82421875, 25644.111328125, 0.0, 0.0, 0.0, 193.0, 0.0, 1.0, 1.0, 0.0, 0.0, 1.0, 1.0, 256.0, 1.0, 1.608194747596851E9, 2020-12-17 14:30:47.596
3.0, 40367.8984375, 39767.6875, 28343.77734375, 29764.4765625, 28925.369140625, 33152.0390625, 34252.796875, 25947.625, 0.0, 0.0, 0.0, 193.0, 0.0, 1.0, 1.0, 0.0, 0.0, 1.0, 1.0, 256.0, 1.0, 1.608194747596855E9, 2020-12-17 14:30:47.596
4.0, 40197.17578125, 39560.93359375, 28137.470703125, 29584.677734375, 28751.271484375, 32952.5703125, 34080.21875, 25760.787109375, 0.0, 0.0, 0.0, 193.0, 0.0, 1.0, 1.0, 0.0, 0.0, 1.0, 1.0, 256.0, 1.0, 1.608194747596859E9, 2020-12-17 14:30:47.596
5.0, 39889.63671875, 39202.90234375, 27790.34765625, 29231.677734375, 28487.251953125, 32618.033203125, 33783.18359375, 25433.84765625, 0.0, 0.0, 0.0, 193.0, 0.0, 1.0, 1.0, 0.0, 0.0, 1.0, 1.0, 256.0, 1.0, 1.608194747596862E9, 2020-12-17 14:30:47.596
6.0, 39776.3359375, 39074.0, 27671.078125, 29095.509765625, 28418.251953125, 32509.515625, 33680.0078125, 25316.94921875, 0.0, 0.0, 0.0, 193.0, 0.0, 1.0, 1.0, 0.0, 0.0, 1.0, 1.0, 256.0, 1.0, 1.608194747596866E9, 2020-12-17 14:30:47.596
7.0, 40074.59765625, 39426.1953125, 28017.91015625, 29443.86328125, 28682.65234375, 32835.29296875, 33971.8125, 25629.11328125, 0.0, 0.0, 0.0, 193.0, 0.0, 1.0, 1.0, 0.0, 0.0, 1.0, 1.0, 256.0, 1.0, 1.608194747596869E9, 2020-12-17 14:30:47.596
8.0, 40371.80859375, 39769.453125, 28350.19140625, 29783.2734375, 28922.642578125, 33147.16796875, 34257.46875, 25950.083984375, 0.0, 0.0, 0.0, 193.0, 0.0, 1.0, 1.0, 0.0, 0.0, 1.0, 1.0, 256.0, 1.0, 1.608194747596873E9, 2020-12-17 14:30:47.596
9.0, 40201.375, 39560.39453125, 28141.13671875, 29572.943359375, 28758.0, 32953.66796875, 34081.89453125, 25770.734375, 0.0, 0.0, 0.0, 193.0, 0.0, 1.0, 1.0, 0.0, 0.0, 1.0, 1.0, 256.0, 1.0, 1.608194747596876E9, 2020-12-17 14:30:47.596
10.0, 39887.78125, 39189.84765625, 27780.333984375, 29202.6640625, 28490.380859375, 32614.859375, 33768.96875, 25422.828125, 0.0, 0.0, 0.0, 193.0, 0.0, 1.0, 1.0, 0.0, 0.0, 1.0, 1.0, 256.0, 1.0, 1.60819474759688E9, 2020-12-17 14:30:47.596
11.0, 39766.94921875, 39057.390625, 27656.9296875, 29071.9296875, 28407.6796875, 32501.357421875, 33664.765625, 25306.21875, 0.0, 0.0, 0.0, 193.0, 0.0, 1.0, 1.0, 0.0, 0.0, 1.0, 1.0, 256.0, 1.0, 1.608194747596883E9, 2020-12-17 14:30:47.596
12.0, 40067.48828125, 39413.25390625, 28009.88671875, 29422.60546875, 28687.189453125, 32843.78515625, 33968.75, 25634.90234375, 0.0, 0.0, 0.0, 193.0, 0.0, 1.0, 1.0, 0.0, 0.0, 1.0, 1.0, 256.0, 1.0, 1.608194747596887E9, 2020-12-17 14:30:47.596
13.0, 40373.12890625, 39775.80078125, 28358.841796875, 29774.712890625, 28943.361328125, 33170.390625, 34272.2421875, 25959.91796875, 0.0, 0.0, 0.0, 193.0, 0.0, 1.0, 1.0, 0.0, 0.0, 1.0, 1.0, 256.0, 1.0, 1.608194747596891E9, 2020-12-17 14:30:47.596
14.0, 40213.78125, 39574.90234375, 28159.93359375, 29585.70703125, 28776.373046875, 32976.2890625, 34106.546875, 25781.037109375, 0.0, 0.0, 0.0, 193.0, 0.0, 1.0, 1.0, 0.0, 0.0, 1.0, 1.0, 256.0, 1.0, 1.608194747596894E9, 2020-12-17 14:30:47.596
15.0, 39892.96875, 39197.9609375, 27793.8125, 29228.16796875, 28500.955078125, 32629.3203125, 33790.49609375, 25432.796875, 0.0, 0.0, 0.0, 193.0, 0.0, 1.0, 1.0, 0.0, 0.0, 1.0, 1.0, 256.0, 1.0, 1.608194747596898E9, 2020-12-17 14:30:47.596
0.0, 0.0, 0.0, 0.0, 0.0, 0.0, 0.0, 0.0, 0.0, 0.0, 0.0, 0.0, 193.0, 0.0, 1.0, 1.0, 0.0, 0.0, 1.0, 1.0, 256.0, 1.0, 1.608194747696738E9, 2020-12-17 14:30:47.696
1.0, 39862.2109375, 39027.75390625, 27748.99609375, 29167.39453125, 28463.1796875, 32525.67578125, 33705.265625, 25338.0703125, 0.0, 0.0, 0.0, 193.0, 0.0, 1.0, 1.0, 0.0, 0.0, 1.0, 1.0, 256.0, 1.0, 1.608194747756177E9, 2020-12-17 14:30:47.756
2.0, 40258.3046875, 39498.21484375, 28209.21875, 29623.234375, 28823.333984375, 32961.625, 34100.40234375, 25762.1953125, 0.0, 0.0, 0.0, 193.0, 0.0, 1.0, 1.0, 0.0, 0.0, 1.0, 1.0, 256.0, 1.0, 1.608194747756182E9, 2020-12-17 14:30:47.756
3.0, 40514.45703125, 39787.22265625, 28485.240234375, 29902.162109375, 29015.4921875, 33221.640625, 34336.94921875, 26026.83984375, 0.0, 0.0, 0.0, 193.0, 0.0, 1.0, 1.0, 0.0, 0.0, 1.0, 1.0, 256.0, 1.0, 1.608194747756186E9, 2020-12-17 14:30:47.756
4.0, 40237.453125, 39452.59375, 28155.015625, 29568.5859375, 28748.388671875, 32908.65234375, 34056.94921875, 25726.611328125, 0.0, 0.0, 0.0, 193.0, 0.0, 1.0, 1.0, 0.0, 0.0, 1.0, 1.0, 256.0, 1.0, 1.60819474775619E9, 2020-12-17 14:30:47.756
5.0, 39890.3984375, 39054.0390625, 27770.07421875, 29164.17578125, 28458.396484375, 32545.279296875, 33722.96875, 25361.2265625, 0.0, 0.0, 0.0, 193.0, 0.0, 1.0, 1.0, 0.0, 0.0, 1.0, 1.0, 256.0, 1.0, 1.608194747756195E9, 2020-12-17 14:30:47.756
6.0, 39838.16015625, 39010.02734375, 27734.4453125, 29145.84765625, 28444.515625, 32511.52734375, 33682.6484375, 25316.568359375, 0.0, 0.0, 0.0, 193.0, 0.0, 1.0, 1.0, 0.0, 0.0, 1.0, 1.0, 256.0, 1.0, 1.608194747756212E9, 2020-12-17 14:30:47.756
7.0, 40243.890625, 39486.8359375, 28202.291015625, 29636.9140625, 28812.08984375, 32955.8359375, 34079.79296875, 25743.419921875, 0.0, 0.0, 0.0, 193.0, 0.0, 1.0, 1.0, 0.0, 0.0, 1.0, 1.0, 256.0, 1.0, 1.608194747756216E9, 2020-12-17 14:30:47.756
8.0, 40513.71875, 39787.17578125, 28489.287109375, 29927.888671875, 29025.83984375, 33228.6171875, 34333.59765625, 26025.41015625, 0.0, 0.0, 0.0, 193.0, 0.0, 1.0, 1.0, 0.0, 0.0, 1.0, 1.0, 256.0, 1.0, 1.60819474775622E9, 2020-12-17 14:30:47.756
9.0, 40244.11328125, 39456.4375, 28161.07421875, 29596.748046875, 28768.6171875, 32920.2734375, 34057.46484375, 25736.556640625, 0.0, 0.0, 0.0, 193.0, 0.0, 1.0, 1.0, 0.0, 0.0, 1.0, 1.0, 256.0, 1.0, 1.608194747756224E9, 2020-12-17 14:30:47.756
10.0, 39895.73828125, 39052.71875, 27771.951171875, 29196.384765625, 28479.4296875, 32555.873046875, 33730.2578125, 25376.224609375, 0.0, 0.0, 0.0, 193.0, 0.0, 1.0, 1.0, 0.0, 0.0, 1.0, 1.0, 256.0, 1.0, 1.608194747756228E9, 2020-12-17 14:30:47.756
11.0, 39846.41015625, 39006.54296875, 27732.345703125, 29150.673828125, 28462.62109375, 32514.166015625, 33689.64453125, 25312.5234375, 0.0, 0.0, 0.0, 193.0, 0.0, 1.0, 1.0, 0.0, 0.0, 1.0, 1.0, 256.0, 1.0, 1.608194747756232E9, 2020-12-17 14:30:47.756
12.0, 40252.5390625, 39485.11328125, 28203.05078125, 29631.1484375, 28825.322265625, 32961.24609375, 34087.1484375, 25733.875, 0.0, 0.0, 0.0, 193.0, 0.0, 1.0, 1.0, 0.0, 0.0, 1.0, 1.0, 256.0, 1.0, 1.608194747756236E9, 2020-12-17 14:30:47.756
13.0, 40517.80859375, 39787.35546875, 28491.431640625, 29922.32421875, 29028.388671875, 33234.76171875, 34332.43359375, 26018.30078125, 0.0, 0.0, 0.0, 193.0, 0.0, 1.0, 1.0, 0.0, 0.0, 1.0, 1.0, 256.0, 1.0, 1.608194747756241E9, 2020-12-17 14:30:47.756
14.0, 40238.01171875, 39457.30859375, 28161.990234375, 29582.578125, 28755.09375, 32917.078125, 34059.18359375, 25735.75390625, 0.0, 0.0, 0.0, 193.0, 0.0, 1.0, 1.0, 0.0, 0.0, 1.0, 1.0, 256.0, 1.0, 1.608194747756245E9, 2020-12-17 14:30:47.756
15.0, 39898.421875, 39053.12109375, 27769.0234375, 29185.095703125, 28470.578125, 32549.615234375, 33720.80078125, 25371.3515625, 0.0, 0.0, 0.0, 193.0, 0.0, 1.0, 1.0, 0.0, 0.0, 1.0, 1.0, 256.0, 1.0, 1.608194747756249E9, 2020-12-17 14:30:47.756
16.0, 39841.9375, 38996.28125, 27720.6328125, 29129.240234375, 28447.466796875, 32502.876953125, 33675.26953125, 25312.322265625, 0.0, 0.0, 0.0, 193.0, 0.0, 1.0, 1.0, 0.0, 0.0, 1.0, 1.0, 256.0, 1.0, 1.60819474781634E9, 2020-12-17 14:30:47.816
17.0, 40239.0390625, 39469.0234375, 28182.732421875, 29593.396484375, 28800.78125, 32932.74609375, 34066.94140625, 25733.294921875, 0.0, 0.0, 0.0, 193.0, 0.0, 1.0, 1.0, 0.0, 0.0, 1.0, 1.0, 256.0, 1.0, 1.608194747816347E9, 2020-12-17 14:30:47.816
18.0, 40514.7265625, 39787.04296875, 28488.34765625, 29911.52734375, 29013.435546875, 33219.33984375, 34335.96484375, 26026.4375, 0.0, 0.0, 0.0, 193.0, 0.0, 1.0, 1.0, 0.0, 0.0, 1.0, 1.0, 256.0, 1.0, 1.608194747816348E9, 2020-12-17 14:30:47.816
19.0, 40241.3203125, 39457.734375, 28165.23046875, 29595.408203125, 28746.82421875, 32914.0390625, 34059.67578125, 25736.35546875, 0.0, 0.0, 0.0, 193.0, 0.0, 1.0, 1.0, 0.0, 0.0, 1.0, 1.0, 256.0, 1.0, 1.60819474781635E9, 2020-12-17 14:30:47.816
20.0, 39899.89453125, 39056.90234375, 27778.1875, 29199.513671875, 28461.48046875, 32550.53125, 33728.24609375, 25376.58203125, 0.0, 0.0, 0.0, 193.0, 0.0, 1.0, 1.0, 0.0, 0.0, 1.0, 1.0, 256.0, 1.0, 1.608194747816351E9, 2020-12-17 14:30:47.816
21.0, 39833.109375, 38988.32421875, 27716.072265625, 29127.25, 28433.787109375, 32496.91015625, 33671.875, 25306.419921875, 0.0, 0.0, 0.0, 193.0, 0.0, 1.0, 1.0, 0.0, 0.0, 1.0, 1.0, 256.0, 1.0, 1.608194747816353E9, 2020-12-17 14:30:47.816
22.0, 40227.83984375, 39458.8984375, 28177.681640625, 29581.705078125, 28788.6875, 32926.48828125, 34064.86328125, 25731.484375, 0.0, 0.0, 0.0, 193.0, 0.0, 1.0, 1.0, 0.0, 0.0, 1.0, 1.0, 256.0, 1.0, 1.608194747816354E9, 2020-12-17 14:30:47.816
23.0, 40514.30078125, 39784.11328125, 28488.392578125, 29897.40234375, 29012.048828125, 33219.9453125, 34333.57421875, 26033.27734375, 0.0, 0.0, 0.0, 193.0, 0.0, 1.0, 1.0, 0.0, 0.0, 1.0, 1.0, 256.0, 1.0, 1.608194747816355E9, 2020-12-17 14:30:47.816
24.0, 40242.5703125, 39460.796875, 28168.986328125, 29592.880859375, 28747.962890625, 32923.55859375, 34066.0234375, 25743.75390625, 0.0, 0.0, 0.0, 193.0, 0.0, 1.0, 1.0, 0.0, 0.0, 1.0, 1.0, 256.0, 1.0, 1.608194747816357E9, 2020-12-17 14:30:47.816
25.0, 39890.15234375, 39056.2734375, 27778.947265625, 29203.201171875, 28455.625, 32554.509765625, 33736.6953125, 25382.640625, 0.0, 0.0, 0.0, 193.0, 0.0, 1.0, 1.0, 0.0, 0.0, 1.0, 1.0, 256.0, 1.0, 1.608194747816358E9, 2020-12-17 14:30:47.816
26.0, 39827.1640625, 38982.4921875, 27711.580078125, 29121.818359375, 28433.005859375, 32496.26171875, 33667.89453125, 25309.37109375, 0.0, 0.0, 0.0, 193.0, 0.0, 1.0, 1.0, 0.0, 0.0, 1.0, 1.0, 256.0, 1.0, 1.608194747816359E9, 2020-12-17 14:30:47.816
27.0, 40218.90234375, 39445.0390625, 28162.83984375, 29575.08984375, 28785.111328125, 32925.9296875, 34046.78125, 25718.609375, 0.0, 0.0, 0.0, 193.0, 0.0, 1.0, 1.0, 0.0, 0.0, 1.0, 1.0, 256.0, 1.0, 1.608194747816361E9, 2020-12-17 14:30:47.816
28.0, 40508.87109375, 39782.39453125, 28486.24609375, 29922.30078125, 29011.35546875, 33221.484375, 34329.10546875, 26024.60546875, 0.0, 0.0, 0.0, 193.0, 0.0, 1.0, 1.0, 0.0, 0.0, 1.0, 1.0, 256.0, 1.0, 1.608194747816362E9, 2020-12-17 14:30:47.816
29.0, 40252.6953125, 39466.65234375, 28175.53515625, 29611.970703125, 28767.431640625, 32922.21875, 34068.7734375, 25751.466796875, 0.0, 0.0, 0.0, 193.0, 0.0, 1.0, 1.0, 0.0, 0.0, 1.0, 1.0, 256.0, 1.0, 1.608194747816374E9, 2020-12-17 14:30:47.816
30.0, 39901.640625, 39055.55859375, 27775.931640625, 29198.865234375, 28467.828125, 32542.619140625, 33723.99609375, 25376.962890625, 0.0, 0.0, 0.0, 193.0, 0.0, 1.0, 1.0, 0.0, 0.0, 1.0, 1.0, 256.0, 1.0, 1.608194747816375E9, 2020-12-17 14:30:47.816
31.0, 39827.3203125, 38979.5625, 27708.65234375, 29123.181640625, 28429.205078125, 32479.630859375, 33658.86328125, 25300.810546875, 0.0, 0.0, 0.0, 193.0, 0.0, 1.0, 1.0, 0.0, 0.0, 1.0, 1.0, 256.0, 1.0, 1.608194747876745E9, 2020-12-17 14:30:47.876
32.0, 40223.1015625, 39448.5703125, 28170.439453125, 29584.41015625, 28787.34765625, 32922.46484375, 34052.41015625, 25724.21875, 0.0, 0.0, 0.0, 193.0, 0.0, 1.0, 1.0, 0.0, 0.0, 1.0, 1.0, 256.0, 1.0, 1.608194747876752E9, 2020-12-17 14:30:47.876
33.0, 40520.15625, 39798.12890625, 28504.060546875, 29920.267578125, 29019.0, 33231.74609375, 34343.25390625, 26042.8203125, 0.0, 0.0, 0.0, 193.0, 0.0, 1.0, 1.0, 0.0, 0.0, 1.0, 1.0, 256.0, 1.0, 1.608194747876755E9, 2020-12-17 14:30:47.876
34.0, 40268.65625, 39485.29296875, 28192.6796875, 29612.05859375, 28769.130859375, 32940.12109375, 34085.625, 25761.412109375, 0.0, 0.0, 0.0, 193.0, 0.0, 1.0, 1.0, 0.0, 0.0, 1.0, 1.0, 256.0, 1.0, 1.608194747876757E9, 2020-12-17 14:30:47.876
35.0, 39910.35546875, 39060.85546875, 27778.724609375, 29190.39453125, 28465.236328125, 32554.95703125, 33728.3125, 25375.576171875, 0.0, 0.0, 0.0, 193.0, 0.0, 1.0, 1.0, 0.0, 0.0, 1.0, 1.0, 256.0, 1.0, 1.608194747876759E9, 2020-12-17 14:30:47.876
36.0, 39828.99609375, 38976.12109375, 27705.27734375, 29127.138671875, 28435.6875, 32490.60546875, 33670.0625, 25302.46484375, 0.0, 0.0, 0.0, 193.0, 0.0, 1.0, 1.0, 0.0, 0.0, 1.0, 1.0, 256.0, 1.0, 1.608194747876762E9, 2020-12-17 14:30:47.876
37.0, 40212.10546875, 39439.203125, 28161.833984375, 29600.392578125, 28783.32421875, 32916.5625, 34059.56640625, 25723.369140625, 0.0, 0.0, 0.0, 193.0, 0.0, 1.0, 1.0, 0.0, 0.0, 1.0, 1.0, 256.0, 1.0, 1.608194747876764E9, 2020-12-17 14:30:47.876
38.0, 40519.7109375, 39796.33984375, 28504.240234375, 29938.126953125, 29019.58203125, 33235.5, 34354.13671875, 26042.552734375, 0.0, 0.0, 0.0, 193.0, 0.0, 1.0, 1.0, 0.0, 0.0, 1.0, 1.0, 256.0, 1.0, 1.608194747876766E9, 2020-12-17 14:30:47.876
39.0, 40258.8671875, 39482.03125, 28192.322265625, 29620.1953125, 28768.056640625, 32936.8828125, 34082.85546875, 25765.94921875, 0.0, 0.0, 0.0, 193.0, 0.0, 1.0, 1.0, 0.0, 0.0, 1.0, 1.0, 256.0, 1.0, 1.608194747876769E9, 2020-12-17 14:30:47.876
40.0, 39891.0234375, 39058.10546875, 27779.439453125, 29201.837890625, 28456.607421875, 32545.658203125, 33719.59375, 25376.29296875, 0.0, 0.0, 0.0, 193.0, 0.0, 1.0, 1.0, 0.0, 0.0, 1.0, 1.0, 256.0, 1.0, 1.608194747876771E9, 2020-12-17 14:30:47.876
41.0, 39811.5390625, 38965.79296875, 27695.0625, 29105.2109375, 28407.814453125, 32465.572265625, 33642.01171875, 25276.021484375, 0.0, 0.0, 0.0, 193.0, 0.0, 1.0, 1.0, 0.0, 0.0, 1.0, 1.0, 256.0, 1.0, 1.608194747876773E9, 2020-12-17 14:30:47.876
42.0, 40201.21875, 39425.92578125, 28144.17578125, 29551.419921875, 28762.603515625, 32891.171875, 34020.42578125, 25681.83984375, 0.0, 0.0, 0.0, 193.0, 0.0, 1.0, 1.0, 0.0, 0.0, 1.0, 1.0, 256.0, 1.0, 1.608194747876776E9, 2020-12-17 14:30:47.876
43.0, 40527.7109375, 39791.2890625, 28497.109375, 29919.240234375, 29028.09765625, 33231.65625, 34332.30078125, 26014.501953125, 0.0, 0.0, 0.0, 193.0, 0.0, 1.0, 1.0, 0.0, 0.0, 1.0, 1.0, 256.0, 1.0, 1.608194747876778E9, 2020-12-17 14:30:47.876
44.0, 40286.42578125, 39494.8828125, 28207.36328125, 29631.595703125, 28795.21484375, 32962.18359375, 34091.57421875, 25752.359375, 0.0, 0.0, 0.0, 193.0, 0.0, 1.0, 1.0, 0.0, 0.0, 1.0, 1.0, 256.0, 1.0, 1.60819474787678E9, 2020-12-17 14:30:47.876
45.0, 39923.87890625, 39075.09375, 27801.76953125, 29228.99609375, 28496.841796875, 32585.69140625, 33746.015625, 25375.576171875, 0.0, 0.0, 0.0, 193.0, 0.0, 1.0, 1.0, 0.0, 0.0, 1.0, 1.0, 256.0, 1.0, 1.608194747876783E9, 2020-12-17 14:30:47.876
46.0, 39829.48828125, 38973.37109375, 27711.55859375, 29129.462890625, 28448.5390625, 32503.525390625, 33675.09375, 25287.890625, 0.0, 0.0, 0.0, 193.0, 0.0, 1.0, 1.0, 0.0, 0.0, 1.0, 1.0, 256.0, 1.0, 1.608194747936993E9, 2020-12-17 14:30:47.936
47.0, 40227.34765625, 39442.265625, 28170.818359375, 29598.224609375, 28819.9140625, 32940.7265625, 34065.51171875, 25711.12109375, 0.0, 0.0, 0.0, 193.0, 0.0, 1.0, 1.0, 0.0, 0.0, 1.0, 1.0, 256.0, 1.0, 1.608194747937007E9, 2020-12-17 14:30:47.937
48.0, 40547.3828125, 39813.328125, 28527.732421875, 29970.24609375, 29066.23046875, 33275.82421875, 34381.38671875, 26072.83984375, 0.0, 0.0, 0.0, 193.0, 0.0, 1.0, 1.0, 0.0, 0.0, 1.0, 1.0, 256.0, 1.0, 1.608194747937013E9, 2020-12-17 14:30:47.937
49.0, 40292.28125, 39513.5, 28233.134765625, 29674.689453125, 28798.544921875, 32997.72265625, 34147.78515625, 25852.697265625, 0.0, 0.0, 0.0, 193.0, 0.0, 1.0, 1.0, 0.0, 0.0, 1.0, 1.0, 256.0, 1.0, 1.608194747937018E9, 2020-12-17 14:30:47.937
50.0, 39915.05078125, 39080.05859375, 27814.3984375, 29243.546875, 28470.599609375, 32599.59375, 33796.53125, 25475.51171875, 0.0, 0.0, 0.0, 193.0, 0.0, 1.0, 1.0, 0.0, 0.0, 1.0, 1.0, 256.0, 1.0, 1.608194747937024E9, 2020-12-17 14:30:47.937
51.0, 39809.55078125, 38966.21875, 27706.685546875, 29124.791015625, 28404.439453125, 32498.541015625, 33686.625, 25346.384765625, 0.0, 0.0, 0.0, 193.0, 0.0, 1.0, 1.0, 0.0, 0.0, 1.0, 1.0, 256.0, 1.0, 1.608194747937029E9, 2020-12-17 14:30:47.937
52.0, 40179.91796875, 39410.03515625, 28138.587890625, 29547.685546875, 28729.142578125, 32891.5078125, 34038.5546875, 25740.71484375, 0.0, 0.0, 0.0, 193.0, 0.0, 1.0, 1.0, 0.0, 0.0, 1.0, 1.0, 256.0, 1.0, 1.608194747937052E9, 2020-12-17 14:30:47.937
53.0, 40509.65234375, 39785.61328125, 28499.76953125, 29917.33984375, 28977.984375, 33223.72265625, 34346.5625, 26086.787109375, 0.0, 0.0, 0.0, 193.0, 0.0, 1.0, 1.0, 0.0, 0.0, 1.0, 1.0, 256.0, 1.0, 1.608194747937057E9, 2020-12-17 14:30:47.937
54.0, 40277.4609375, 39501.23046875, 28216.1484375, 29639.708984375, 28745.416015625, 32958.13671875, 34107.0859375, 25821.60546875, 0.0, 0.0, 0.0, 193.0, 0.0, 1.0, 1.0, 0.0, 0.0, 1.0, 1.0, 256.0, 1.0, 1.608194747937063E9, 2020-12-17 14:30:47.937
55.0, 39914.3125, 39074.671875, 27800.78515625, 29212.23046875, 28444.337890625, 32573.509765625, 33750.171875, 25424.86328125, 0.0, 0.0, 0.0, 193.0, 0.0, 1.0, 1.0, 0.0, 0.0, 1.0, 1.0, 256.0, 1.0, 1.608194747937068E9, 2020-12-17 14:30:47.937
56.0, 39800.38671875, 38949.25390625, 27683.9765625, 29078.34375, 28377.83984375, 32455.380859375, 33639.0625, 25301.146484375, 0.0, 0.0, 0.0, 193.0, 0.0, 1.0, 1.0, 0.0, 0.0, 1.0, 1.0, 256.0, 1.0, 1.608194747937074E9, 2020-12-17 14:30:47.937
57.0, 40180.58984375, 39400.78125, 28128.23828125, 29535.2578125, 28739.626953125, 32873.11328125, 34014.1015625, 25691.564453125, 0.0, 0.0, 0.0, 193.0, 0.0, 1.0, 1.0, 0.0, 0.0, 1.0, 1.0, 256.0, 1.0, 1.608194747937079E9, 2020-12-17 14:30:47.937
58.0, 40524.40234375, 39794.93359375, 28508.509765625, 29941.14453125, 29015.044921875, 33230.58203125, 34344.68359375, 26051.224609375, 0.0, 0.0, 0.0, 193.0, 0.0, 1.0, 1.0, 0.0, 0.0, 1.0, 1.0, 256.0, 1.0, 1.608194747937085E9, 2020-12-17 14:30:47.937
59.0, 40293.30859375, 39513.92578125, 28228.509765625, 29668.05078125, 28786.654296875, 32964.08203125, 34108.37890625, 25800.796875, 0.0, 0.0, 0.0, 193.0, 0.0, 1.0, 1.0, 0.0, 0.0, 1.0, 1.0, 256.0, 1.0, 1.60819474793709E9, 2020-12-17 14:30:47.937
60.0, 39915.72265625, 39080.97265625, 27807.111328125, 29237.9140625, 28462.44140625, 32561.55078125, 33744.13671875, 25406.04296875, 0.0, 0.0, 0.0, 193.0, 0.0, 1.0, 1.0, 0.0, 0.0, 1.0, 1.0, 256.0, 1.0, 1.608194747937096E9, 2020-12-17 14:30:47.937
61.0, 39806.33203125, 38950.83984375, 27685.5625, 29106.73046875, 28398.94140625, 32453.94921875, 33632.578125, 25282.572265625, 0.0, 0.0, 0.0, 193.0, 0.0, 1.0, 1.0, 0.0, 0.0, 1.0, 1.0, 256.0, 1.0, 1.608194747997381E9, 2020-12-17 14:30:47.997
62.0, 40192.90625, 39403.62109375, 28132.955078125, 29548.333984375, 28759.2734375, 32885.42578125, 34014.45703125, 25684.322265625, 0.0, 0.0, 0.0, 193.0, 0.0, 1.0, 1.0, 0.0, 0.0, 1.0, 1.0, 256.0, 1.0, 1.608194747997386E9, 2020-12-17 14:30:47.997
63.0, 40543.8515625, 39807.78515625, 28524.87109375, 29946.888671875, 29039.228515625, 33254.12109375, 34363.59375, 26059.763671875, 0.0, 0.0, 0.0, 193.0, 0.0, 1.0, 1.0, 0.0, 0.0, 1.0, 1.0, 256.0, 1.0, 1.608194747997387E9, 2020-12-17 14:30:47.997
64.0, 40310.4765625, 39529.4375, 28249.095703125, 29677.28125, 28802.099609375, 32985.83203125, 34133.66015625, 25817.828125, 0.0, 0.0, 0.0, 193.0, 0.0, 1.0, 1.0, 0.0, 0.0, 1.0, 1.0, 256.0, 1.0, 1.608194747997389E9, 2020-12-17 14:30:47.997
65.0, 39923.4765625, 39082.89453125, 27817.392578125, 29233.041015625, 28476.76953125, 32585.2890625, 33765.125, 25412.345703125, 0.0, 0.0, 0.0, 193.0, 0.0, 1.0, 1.0, 0.0, 0.0, 1.0, 1.0, 256.0, 1.0, 1.60819474799739E9, 2020-12-17 14:30:47.997
66.0, 39806.82421875, 38951.17578125, 27691.28515625, 29097.611328125, 28411.927734375, 32481.978515625, 33653.390625, 25286.21484375, 0.0, 0.0, 0.0, 193.0, 0.0, 1.0, 1.0, 0.0, 0.0, 1.0, 1.0, 256.0, 1.0, 1.608194747997392E9, 2020-12-17 14:30:47.997
67.0, 40185.84375, 39393.1171875, 28121.01953125, 29537.26953125, 28753.595703125, 32886.72265625, 34014.32421875, 25674.798828125, 0.0, 0.0, 0.0, 193.0, 0.0, 1.0, 1.0, 0.0, 0.0, 1.0, 1.0, 256.0, 1.0, 1.608194747997393E9, 2020-12-17 14:30:47.997
68.0, 40528.49609375, 39787.2421875, 28503.435546875, 29938.796875, 29023.716796875, 33243.859375, 34352.3046875, 26052.142578125, 0.0, 0.0, 0.0, 193.0, 0.0, 1.0, 1.0, 0.0, 0.0, 1.0, 1.0, 256.0, 1.0, 1.608194747997395E9, 2020-12-17 14:30:47.997
69.0, 40324.35546875, 39530.87109375, 28249.7421875, 29685.439453125, 28816.181640625, 32999.109375, 34135.26953125, 25821.830078125, 0.0, 0.0, 0.0, 193.0, 0.0, 1.0, 1.0, 0.0, 0.0, 1.0, 1.0, 256.0, 1.0, 1.608194747997396E9, 2020-12-17 14:30:47.997
70.0, 39942.69921875, 39093.37890625, 27825.751953125, 29243.099609375, 28491.23046875, 32598.07421875, 33763.11328125, 25414.177734375, 0.0, 0.0, 0.0, 193.0, 0.0, 1.0, 1.0, 0.0, 0.0, 1.0, 1.0, 256.0, 1.0, 1.608194747997398E9, 2020-12-17 14:30:47.997
71.0, 39804.41015625, 38944.11328125, 27686.859375, 29094.1015625, 28400.86328125, 32463.6953125, 33647.95703125, 25278.705078125, 0.0, 0.0, 0.0, 193.0, 0.0, 1.0, 1.0, 0.0, 0.0, 1.0, 1.0, 256.0, 1.0, 1.608194747997399E9, 2020-12-17 14:30:47.997
72.0, 40167.24609375, 39380.62109375, 28115.365234375, 29532.64453125, 28738.955078125, 32868.55078125, 34011.30859375, 25673.81640625, 0.0, 0.0, 0.0, 193.0, 0.0, 1.0, 1.0, 0.0, 0.0, 1.0, 1.0, 256.0, 1.0, 1.608194747997401E9, 2020-12-17 14:30:47.997
73.0, 40531.9609375, 39799.15625, 28519.6171875, 29953.34765625, 29030.220703125, 33248.30859375, 34359.12109375, 26059.18359375, 0.0, 0.0, 0.0, 193.0, 0.0, 1.0, 1.0, 0.0, 0.0, 1.0, 1.0, 256.0, 1.0, 1.608194747997402E9, 2020-12-17 14:30:47.997
74.0, 40328.4921875, 39543.05078125, 28263.33203125, 29703.03125, 28818.68359375, 32997.41015625, 34139.26953125, 25823.662109375, 0.0, 0.0, 0.0, 193.0, 0.0, 1.0, 1.0, 0.0, 0.0, 1.0, 1.0, 256.0, 1.0, 1.608194747997404E9, 2020-12-17 14:30:47.997
75.0, 39951.37109375, 39097.71484375, 27834.4921875, 29263.685546875, 28501.759765625, 32601.560546875, 33779.609375, 25420.146484375, 0.0, 0.0, 0.0, 193.0, 0.0, 1.0, 1.0, 0.0, 0.0, 1.0, 1.0, 256.0, 1.0, 1.608194747997405E9, 2020-12-17 14:30:47.997
76.0, 39805.37109375, 38941.6328125, 27687.73046875, 29100.919921875, 28410.810546875, 32479.85546875, 33657.8828125, 25280.89453125, 0.0, 0.0, 0.0, 193.0, 0.0, 1.0, 1.0, 0.0, 0.0, 1.0, 1.0, 256.0, 1.0, 1.608194748056172E9, 2020-12-17 14:30:48.056
77.0, 40168.00390625, 39379.28125, 28116.4140625, 29525.87109375, 28747.337890625, 32883.86328125, 34012.11328125, 25665.58984375, 0.0, 0.0, 0.0, 193.0, 0.0, 1.0, 1.0, 0.0, 0.0, 1.0, 1.0, 256.0, 1.0, 1.608194748056186E9, 2020-12-17 14:30:48.056
78.0, 40535.6484375, 39802.82421875, 28524.982421875, 29955.896484375, 29047.41015625, 33256.78125, 34361.76171875, 26053.70703125, 0.0, 0.0, 0.0, 193.0, 0.0, 1.0, 1.0, 0.0, 0.0, 1.0, 1.0, 256.0, 1.0, 1.608194748056206E9, 2020-12-17 14:30:48.056
79.0, 40333.296875, 39546.76171875, 28269.390625, 29709.021484375, 28838.041015625, 33017.4140625, 34155.09765625, 25834.14453125, 0.0, 0.0, 0.0, 193.0, 0.0, 1.0, 1.0, 0.0, 0.0, 1.0, 1.0, 256.0, 1.0, 1.608194748056213E9, 2020-12-17 14:30:48.056
80.0, 39946.296875, 39101.11328125, 27836.2578125, 29265.853515625, 28500.283203125, 32609.673828125, 33786.40234375, 25422.44921875, 0.0, 0.0, 0.0, 193.0, 0.0, 1.0, 1.0, 0.0, 0.0, 1.0, 1.0, 256.0, 1.0, 1.60819474805622E9, 2020-12-17 14:30:48.056
81.0, 39806.95703125, 38948.0234375, 27694.79296875, 29112.720703125, 28404.037109375, 32479.408203125, 33670.51171875, 25282.212890625, 0.0, 0.0, 0.0, 193.0, 0.0, 1.0, 1.0, 0.0, 0.0, 1.0, 1.0, 256.0, 1.0, 1.608194748056227E9, 2020-12-17 14:30:48.056
82.0, 40174.33203125, 39376.8671875, 28112.79296875, 29524.41796875, 28749.505859375, 32879.66015625, 34010.66015625, 25658.1484375, 0.0, 0.0, 0.0, 193.0, 0.0, 1.0, 1.0, 0.0, 0.0, 1.0, 1.0, 256.0, 1.0, 1.608194748056233E9, 2020-12-17 14:30:48.056
83.0, 40547.1796875, 39803.0234375, 28522.859375, 29943.1328125, 29048.19140625, 33254.96875, 34360.15234375, 26044.05078125, 0.0, 0.0, 0.0, 193.0, 0.0, 1.0, 1.0, 0.0, 0.0, 1.0, 1.0, 256.0, 1.0, 1.60819474805624E9, 2020-12-17 14:30:48.056
84.0, 40354.84375, 39565.0234375, 28283.650390625, 29718.07421875, 28837.28125, 33019.0234375, 34162.47265625, 25832.40234375, 0.0, 0.0, 0.0, 193.0, 0.0, 1.0, 1.0, 0.0, 0.0, 1.0, 1.0, 256.0, 1.0, 1.608194748056247E9, 2020-12-17 14:30:48.056
85.0, 39958.45703125, 39111.99609375, 27843.58984375, 29273.654296875, 28496.259765625, 32602.3203125, 33781.7109375, 25424.6171875, 0.0, 0.0, 0.0, 193.0, 0.0, 1.0, 1.0, 0.0, 0.0, 1.0, 1.0, 256.0, 1.0, 1.608194748056254E9, 2020-12-17 14:30:48.056
86.0, 39791.87109375, 38935.23828125, 27680.599609375, 29105.390625, 28391.20703125, 32454.865234375, 33646.50390625, 25272.021484375, 0.0, 0.0, 0.0, 193.0, 0.0, 1.0, 1.0, 0.0, 0.0, 1.0, 1.0, 256.0, 1.0, 1.608194748056261E9, 2020-12-17 14:30:48.056
87.0, 40145.8984375, 39363.140625, 28101.751953125, 29521.9375, 28737.01171875, 32851.8984375, 34005.2265625, 25652.626953125, 0.0, 0.0, 0.0, 193.0, 0.0, 1.0, 1.0, 0.0, 0.0, 1.0, 1.0, 256.0, 1.0, 1.608194748056268E9, 2020-12-17 14:30:48.056
88.0, 40524.0234375, 39799.37890625, 28523.328125, 29948.072265625, 29055.166015625, 33251.32421875, 34366.0078125, 26046.44140625, 0.0, 0.0, 0.0, 193.0, 0.0, 1.0, 1.0, 0.0, 0.0, 1.0, 1.0, 256.0, 1.0, 1.608194748056275E9, 2020-12-17 14:30:48.056
89.0, 40319.6640625, 39562.02734375, 28285.103515625, 29707.2109375, 28844.388671875, 33021.3046875, 34170.875, 25841.677734375, 0.0, 0.0, 0.0, 193.0, 0.0, 1.0, 1.0, 0.0, 0.0, 1.0, 1.0, 256.0, 1.0, 1.608194748056282E9, 2020-12-17 14:30:48.056
90.0, 39932.3046875, 39104.66796875, 27841.2421875, 29261.494140625, 28520.84765625, 32617.541015625, 33796.75390625, 25441.4921875, 0.0, 0.0, 0.0, 193.0, 0.0, 1.0, 1.0, 0.0, 0.0, 1.0, 1.0, 256.0, 1.0, 1.608194748056289E9, 2020-12-17 14:30:48.056
91.0, 39764.421875, 38933.71875, 27674.275390625, 29084.15625, 28395.1640625, 32456.83203125, 33642.81640625, 25266.455078125, 0.0, 0.0, 0.0, 193.0, 0.0, 1.0, 1.0, 0.0, 0.0, 1.0, 1.0, 256.0, 1.0, 1.608194748116319E9, 2020-12-17 14:30:48.116
92.0, 40104.75, 39343.2265625, 28081.970703125, 29494.48828125, 28708.333984375, 32843.25, 33985.3125, 25626.072265625, 0.0, 0.0, 0.0, 193.0, 0.0, 1.0, 1.0, 0.0, 0.0, 1.0, 1.0, 256.0, 1.0, 1.608194748116327E9, 2020-12-17 14:30:48.116
93.0, 40479.96875, 39788.0703125, 28512.017578125, 29927.93359375, 29012.853515625, 33243.99609375, 34359.01171875, 26033.947265625, 0.0, 0.0, 0.0, 193.0, 0.0, 1.0, 1.0, 0.0, 0.0, 1.0, 1.0, 256.0, 1.0, 1.60819474811633E9, 2020-12-17 14:30:48.116
94.0, 40294.0234375, 39561.4921875, 28282.353515625, 29695.609375, 28823.51171875, 33025.73046875, 34165.890625, 25841.298828125, 0.0, 0.0, 0.0, 193.0, 0.0, 1.0, 1.0, 0.0, 0.0, 1.0, 1.0, 256.0, 1.0, 1.608194748116333E9, 2020-12-17 14:30:48.116
95.0, 39901.70703125, 39100.8203125, 27833.30859375, 29238.650390625, 28489.041015625, 32605.6953125, 33782.828125, 25428.439453125, 0.0, 0.0, 0.0, 193.0, 0.0, 1.0, 1.0, 0.0, 0.0, 1.0, 1.0, 256.0, 1.0, 1.608194748116336E9, 2020-12-17 14:30:48.116
96.0, 39730.46875, 38917.60546875, 27660.4609375, 29067.68359375, 28370.912109375, 32440.046875, 33639.328125, 25253.625, 0.0, 0.0, 0.0, 193.0, 0.0, 1.0, 1.0, 0.0, 0.0, 1.0, 1.0, 256.0, 1.0, 1.608194748116339E9, 2020-12-17 14:30:48.116
97.0, 40092.9921875, 39339.47265625, 28074.7734375, 29498.625, 28714.30078125, 32838.62109375, 33982.2734375, 25624.6640625, 0.0, 0.0, 0.0, 193.0, 0.0, 1.0, 1.0, 0.0, 0.0, 1.0, 1.0, 256.0, 1.0, 1.608194748116342E9, 2020-12-17 14:30:48.116
98.0, 40484.68359375, 39785.703125, 28507.861328125, 29936.5625, 29037.529296875, 33245.42578125, 34355.48046875, 26037.390625, 0.0, 0.0, 0.0, 193.0, 0.0, 1.0, 1.0, 0.0, 0.0, 1.0, 1.0, 256.0, 1.0, 1.608194748116344E9, 2020-12-17 14:30:48.116
99.0, 40306.00390625, 39568.48828125, 28294.759765625, 29723.28125, 28851.80859375, 33036.75, 34188.33203125, 25853.322265625, 0.0, 0.0, 0.0, 193.0, 0.0, 1.0, 1.0, 0.0, 0.0, 1.0, 1.0, 256.0, 1.0, 1.608194748116356E9, 2020-12-17 14:30:48.116
100.0, 39912.12109375, 39109.71875, 27849.2890625, 29269.49609375, 28507.056640625, 32623.30859375, 33800.39453125, 25431.814453125, 0.0, 0.0, 0.0, 193.0, 0.0, 1.0, 1.0, 0.0, 0.0, 1.0, 1.0, 256.0, 1.0, 1.608194748116359E9, 2020-12-17 14:30:48.116
101.0, 39750.00390625, 38926.7890625, 27671.212890625, 29082.904296875, 28387.876953125, 32458.15234375, 33632.48828125, 25252.28515625, 0.0, 0.0, 0.0, 193.0, 0.0, 1.0, 1.0, 0.0, 0.0, 1.0, 1.0, 256.0, 1.0, 1.608194748116362E9, 2020-12-17 14:30:48.116
102.0, 40089.3046875, 39330.26171875, 28066.50390625, 29476.31640625, 28703.28125, 32831.3125, 33961.26171875, 25608.236328125, 0.0, 0.0, 0.0, 193.0, 0.0, 1.0, 1.0, 0.0, 0.0, 1.0, 1.0, 256.0, 1.0, 1.608194748116365E9, 2020-12-17 14:30:48.116
103.0, 40493.58203125, 39792.83203125, 28516.265625, 29933.3203125, 29037.888671875, 33257.11328125, 34352.44140625, 26027.95703125, 0.0, 0.0, 0.0, 193.0, 0.0, 1.0, 1.0, 0.0, 0.0, 1.0, 1.0, 256.0, 1.0, 1.608194748116368E9, 2020-12-17 14:30:48.116
104.0, 40321.60546875, 39583.70703125, 28308.23828125, 29727.1484375, 28852.033203125, 33057.9140625, 34189.65234375, 25855.8046875, 0.0, 0.0, 0.0, 193.0, 0.0, 1.0, 1.0, 0.0, 0.0, 1.0, 1.0, 256.0, 1.0, 1.608194748116371E9, 2020-12-17 14:30:48.116
105.0, 39922.89453125, 39118.09765625, 27854.810546875, 29275.44140625, 28506.453125, 32621.005859375, 33811.05859375, 25441.26953125, 0.0, 0.0, 0.0, 193.0, 0.0, 1.0, 1.0, 0.0, 0.0, 1.0, 1.0, 256.0, 1.0, 1.608194748116374E9, 2020-12-17 14:30:48.116
106.0, 39746.69921875, 38926.09765625, 27670.85546875, 29091.53125, 28385.396484375, 32446.88671875, 33647.12890625, 25260.95703125, 0.0, 0.0, 0.0, 193.0, 0.0, 1.0, 1.0, 0.0, 0.0, 1.0, 1.0, 256.0, 1.0, 1.608194748176583E9, 2020-12-17 14:30:48.176
107.0, 40094.04296875, 39335.46875, 28072.873046875, 29491.11328125, 28707.060546875, 32831.5390625, 33979.3671875, 25623.2109375, 0.0, 0.0, 0.0, 193.0, 0.0, 1.0, 1.0, 0.0, 0.0, 1.0, 1.0, 256.0, 1.0, 1.60819474817659E9, 2020-12-17 14:30:48.176
108.0, 40494.7890625, 39796.16015625, 28520.53515625, 29943.9609375, 29036.30078125, 33256.17578125, 34357.04296875, 26037.30078125, 0.0, 0.0, 0.0, 193.0, 0.0, 1.0, 1.0, 0.0, 0.0, 1.0, 1.0, 256.0, 1.0, 1.608194748176592E9, 2020-12-17 14:30:48.176
109.0, 40337.609375, 39596.046875, 28322.69921875, 29750.751953125, 28871.8359375, 33075.171875, 34205.92578125, 25872.970703125, 0.0, 0.0, 0.0, 193.0, 0.0, 1.0, 1.0, 0.0, 0.0, 1.0, 1.0, 256.0, 1.0, 1.608194748176594E9, 2020-12-17 14:30:48.176
110.0, 39940.8671875, 39130.2578125, 27868.421875, 29284.203125, 28532.359375, 32642.240234375, 33817.8984375, 25459.083984375, 0.0, 0.0, 0.0, 193.0, 0.0, 1.0, 1.0, 0.0, 0.0, 1.0, 1.0, 256.0, 1.0, 1.608194748176596E9, 2020-12-17 14:30:48.176
111.0, 39757.515625, 38925.0703125, 27671.861328125, 29082.703125, 28390.537109375, 32453.255859375, 33638.6796875, 25263.349609375, 0.0, 0.0, 0.0, 193.0, 0.0, 1.0, 1.0, 0.0, 0.0, 1.0, 1.0, 256.0, 1.0, 1.608194748176598E9, 2020-12-17 14:30:48.176
112.0, 40075.6484375, 39307.796875, 28048.779296875, 29459.822265625, 28688.775390625, 32808.671875, 33954.78125, 25600.45703125, 0.0, 0.0, 0.0, 193.0, 0.0, 1.0, 1.0, 0.0, 0.0, 1.0, 1.0, 256.0, 1.0, 1.6081947481766E9, 2020-12-17 14:30:48.176
113.0, 40479.85546875, 39776.671875, 28501.9375, 29925.20703125, 29017.837890625, 33238.02734375, 34339.49609375, 26024.203125, 0.0, 0.0, 0.0, 193.0, 0.0, 1.0, 1.0, 0.0, 0.0, 1.0, 1.0, 256.0, 1.0, 1.608194748176602E9, 2020-12-17 14:30:48.176
114.0, 40327.8671875, 39589.83203125, 28314.361328125, 29741.587890625, 28859.923828125, 33068.421875, 34194.16796875, 25865.794921875, 0.0, 0.0, 0.0, 193.0, 0.0, 1.0, 1.0, 0.0, 0.0, 1.0, 1.0, 256.0, 1.0, 1.608194748176604E9, 2020-12-17 14:30:48.176
115.0, 39928.8203125, 39125.33984375, 27861.89453125, 29276.134765625, 28514.0078125, 32637.099609375, 33812.2421875, 25452.712890625, 0.0, 0.0, 0.0, 193.0, 0.0, 1.0, 1.0, 0.0, 0.0, 1.0, 1.0, 256.0, 1.0, 1.608194748176606E9, 2020-12-17 14:30:48.176
116.0, 39745.4921875, 38916.91015625, 27660.4609375, 29069.091796875, 28372.365234375, 32440.626953125, 33630.94921875, 25254.140625, 0.0, 0.0, 0.0, 193.0, 0.0, 1.0, 1.0, 0.0, 0.0, 1.0, 1.0, 256.0, 1.0, 1.608194748176608E9, 2020-12-17 14:30:48.176
117.0, 40064.671875, 39303.41796875, 28041.3359375, 29449.62890625, 28676.86328125, 32793.26953125, 33951.96484375, 25594.4453125, 0.0, 0.0, 0.0, 193.0, 0.0, 1.0, 1.0, 0.0, 0.0, 1.0, 1.0, 256.0, 1.0, 1.60819474817661E9, 2020-12-17 14:30:48.176
118.0, 40471.85546875, 39778.52734375, 28503.390625, 29919.6640625, 29011.35546875, 33226.046875, 34349.46484375, 26026.1015625, 0.0, 0.0, 0.0, 193.0, 0.0, 1.0, 1.0, 0.0, 0.0, 1.0, 1.0, 256.0, 1.0, 1.608194748176612E9, 2020-12-17 14:30:48.176
119.0, 40324.0859375, 39593.4765625, 28317.111328125, 29747.66796875, 28846.087890625, 33053.265625, 34198.45703125, 25869.3046875, 0.0, 0.0, 0.0, 193.0, 0.0, 1.0, 1.0, 0.0, 0.0, 1.0, 1.0, 256.0, 1.0, 1.608194748176614E9, 2020-12-17 14:30:48.176
120.0, 39923.9921875, 39126.4140625, 27862.431640625, 29289.30078125, 28503.009765625, 32627.66796875, 33810.4765625, 25449.875, 0.0, 0.0, 0.0, 193.0, 0.0, 1.0, 1.0, 0.0, 0.0, 1.0, 1.0, 256.0, 1.0, 1.608194748176616E9, 2020-12-17 14:30:48.176
121.0, 39733.64453125, 38907.94921875, 27653.7109375, 29069.58203125, 28363.267578125, 32431.59765625, 33629.671875, 25250.5859375, 0.0, 0.0, 0.0, 193.0, 0.0, 1.0, 1.0, 0.0, 0.0, 1.0, 1.0, 256.0, 1.0, 1.608194748237184E9, 2020-12-17 14:30:48.237
122.0, 40059.8671875, 39293.47265625, 28035.2109375, 29455.708984375, 28674.068359375, 32795.953125, 33951.2265625, 25596.30078125, 0.0, 0.0, 0.0, 193.0, 0.0, 1.0, 1.0, 0.0, 0.0, 1.0, 1.0, 256.0, 1.0, 1.608194748237196E9, 2020-12-17 14:30:48.237
123.0, 40484.83984375, 39780.8046875, 28506.51953125, 29939.2890625, 29022.8671875, 33247.94921875, 34352.3046875, 26036.115234375, 0.0, 0.0, 0.0, 193.0, 0.0, 1.0, 1.0, 0.0, 0.0, 1.0, 1.0, 256.0, 1.0, 1.608194748237198E9, 2020-12-17 14:30:48.237
124.0, 40343.19921875, 39604.20703125, 28326.119140625, 29758.171875, 28857.017578125, 33070.8125, 34210.125, 25882.447265625, 0.0, 0.0, 0.0, 193.0, 0.0, 1.0, 1.0, 0.0, 0.0, 1.0, 1.0, 256.0, 1.0, 1.608194748237199E9, 2020-12-17 14:30:48.237
125.0, 39935.81640625, 39132.8515625, 27868.51171875, 29287.51171875, 28510.833984375, 32632.583984375, 33822.7265625, 25458.48046875, 0.0, 0.0, 0.0, 193.0, 0.0, 1.0, 1.0, 0.0, 0.0, 1.0, 1.0, 256.0, 1.0, 1.608194748237201E9, 2020-12-17 14:30:48.237
126.0, 39738.2265625, 38909.9609375, 27654.986328125, 29067.34765625, 28373.326171875, 32434.615234375, 33633.5625, 25251.30078125, 0.0, 0.0, 0.0, 193.0, 0.0, 1.0, 1.0, 0.0, 0.0, 1.0, 1.0, 256.0, 1.0, 1.608194748237202E9, 2020-12-17 14:30:48.237
127.0, 40055.6640625, 39289.73828125, 28029.623046875, 29439.4375, 28664.189453125, 32786.1875, 33950.19921875, 25585.4375, 0.0, 0.0, 0.0, 193.0, 0.0, 1.0, 1.0, 0.0, 0.0, 1.0, 1.0, 256.0, 1.0, 1.608194748237203E9, 2020-12-17 14:30:48.237
128.0, 40478.78515625, 39773.4296875, 28496.529296875, 29920.9609375, 29002.416015625, 33227.83203125, 34346.00390625, 26028.8515625, 0.0, 0.0, 0.0, 193.0, 0.0, 1.0, 1.0, 0.0, 0.0, 1.0, 1.0, 256.0, 1.0, 1.608194748237205E9, 2020-12-17 14:30:48.237
129.0, 40344.31640625, 39613.99609375, 28334.478515625, 29763.068359375, 28848.92578125, 33067.68359375, 34217.74609375, 25896.619140625, 0.0, 0.0, 0.0, 193.0, 0.0, 1.0, 1.0, 0.0, 0.0, 1.0, 1.0, 256.0, 1.0, 1.608194748237206E9, 2020-12-17 14:30:48.237
130.0, 39934.296875, 39137.25390625, 27871.529296875, 29291.46875, 28497.04296875, 32636.31640625, 33825.9453125, 25464.068359375, 0.0, 0.0, 0.0, 193.0, 0.0, 1.0, 1.0, 0.0, 0.0, 1.0, 1.0, 256.0, 1.0, 1.608194748237208E9, 2020-12-17 14:30:48.237
131.0, 39730.0234375, 38901.62109375, 27651.23046875, 29068.755859375, 28355.533203125, 32439.0859375, 33635.84375, 25245.580078125, 0.0, 0.0, 0.0, 193.0, 0.0, 1.0, 1.0, 0.0, 0.0, 1.0, 1.0, 256.0, 1.0, 1.608194748237209E9, 2020-12-17 14:30:48.237
132.0, 40041.7421875, 39269.8671875, 28014.625, 29429.490234375, 28651.1796875, 32781.8046875, 33934.52734375, 25572.80859375, 0.0, 0.0, 0.0, 193.0, 0.0, 1.0, 1.0, 0.0, 0.0, 1.0, 1.0, 256.0, 1.0, 1.60819474823721E9, 2020-12-17 14:30:48.237
133.0, 40468.92578125, 39763.21484375, 28491.23046875, 29904.375, 28997.654296875, 33221.8671875, 34334.109375, 26022.927734375, 0.0, 0.0, 0.0, 193.0, 0.0, 1.0, 1.0, 0.0, 0.0, 1.0, 1.0, 256.0, 1.0, 1.608194748237212E9, 2020-12-17 14:30:48.237
134.0, 40347.421875, 39609.66015625, 28336.154296875, 29753.814453125, 28856.19140625, 33072.69140625, 34215.71484375, 25899.994140625, 0.0, 0.0, 0.0, 193.0, 0.0, 1.0, 1.0, 0.0, 0.0, 1.0, 1.0, 256.0, 1.0, 1.608194748237213E9, 2020-12-17 14:30:48.237
135.0, 39938.25390625, 39138.75390625, 27879.3515625, 29292.765625, 28504.26171875, 32640.85546875, 33828.73828125, 25471.2421875, 0.0, 0.0, 0.0, 193.0, 0.0, 1.0, 1.0, 0.0, 0.0, 1.0, 1.0, 256.0, 1.0, 1.608194748237215E9, 2020-12-17 14:30:48.237
136.0, 39730.0234375, 38899.76953125, 27653.419921875, 29063.390625, 28355.6015625, 32424.265625, 33634.90234375, 25249.06640625, 0.0, 0.0, 0.0, 193.0, 0.0, 1.0, 1.0, 0.0, 0.0, 1.0, 1.0, 256.0, 1.0, 1.608194748296461E9, 2020-12-17 14:30:48.296
137.0, 40036.421875, 39266.15625, 28012.568359375, 29423.365234375, 28653.28125, 32764.146484375, 33932.98828125, 25566.908203125, 0.0, 0.0, 0.0, 193.0, 0.0, 1.0, 1.0, 0.0, 0.0, 1.0, 1.0, 256.0, 1.0, 1.608194748296468E9, 2020-12-17 14:30:48.296
138.0, 40471.80859375, 39767.640625, 28494.427734375, 29913.3828125, 29012.65234375, 33216.92578125, 34337.95703125, 26018.234375, 0.0, 0.0, 0.0, 193.0, 0.0, 1.0, 1.0, 0.0, 0.0, 1.0, 1.0, 256.0, 1.0, 1.60819474829647E9, 2020-12-17 14:30:48.296
139.0, 40357.2578125, 39621.88671875, 28348.224609375, 29780.546875, 28875.234375, 33089.65625, 34229.34765625, 25904.798828125, 0.0, 0.0, 0.0, 193.0, 0.0, 1.0, 1.0, 0.0, 0.0, 1.0, 1.0, 256.0, 1.0, 1.608194748296472E9, 2020-12-17 14:30:48.296
140.0, 39946.7890625, 39144.6328125, 27887.623046875, 29322.873046875, 28526.099609375, 32661.171875, 33845.50390625, 25484.005859375, 0.0, 0.0, 0.0, 193.0, 0.0, 1.0, 1.0, 0.0, 0.0, 1.0, 1.0, 256.0, 1.0, 1.608194748296474E9, 2020-12-17 14:30:48.296
141.0, 39721.3515625, 38897.1953125, 27651.251953125, 29070.8125, 28361.814453125, 32428.111328125, 33643.5078125, 25256.62109375, 0.0, 0.0, 0.0, 193.0, 0.0, 1.0, 1.0, 0.0, 0.0, 1.0, 1.0, 256.0, 1.0, 1.608194748296476E9, 2020-12-17 14:30:48.296
142.0, 40028.12890625, 39252.3203125, 28001.19140625, 29416.212890625, 28643.22265625, 32761.845703125, 33932.94140625, 25567.400390625, 0.0, 0.0, 0.0, 193.0, 0.0, 1.0, 1.0, 0.0, 0.0, 1.0, 1.0, 256.0, 1.0, 1.608194748296479E9, 2020-12-17 14:30:48.296
143.0, 40466.1328125, 39758.1640625, 28490.404296875, 29902.564453125, 29002.68359375, 33215.3828125, 34344.1015625, 26021.990234375, 0.0, 0.0, 0.0, 193.0, 0.0, 1.0, 1.0, 0.0, 0.0, 1.0, 1.0, 256.0, 1.0, 1.608194748296481E9, 2020-12-17 14:30:48.296
144.0, 40372.9921875, 39628.8828125, 28360.80859375, 29778.736328125, 28894.724609375, 33095.6015625, 34248.86328125, 25921.228515625, 0.0, 0.0, 0.0, 193.0, 0.0, 1.0, 1.0, 0.0, 0.0, 1.0, 1.0, 256.0, 1.0, 1.608194748296483E9, 2020-12-17 14:30:48.296
145.0, 39957.5625, 39144.6328125, 27889.65625, 29312.3671875, 28536.091796875, 32660.837890625, 33844.31640625, 25482.44140625, 0.0, 0.0, 0.0, 193.0, 0.0, 1.0, 1.0, 0.0, 0.0, 1.0, 1.0, 256.0, 1.0, 1.608194748296492E9, 2020-12-17 14:30:48.296
146.0, 39721.44140625, 38882.46875, 27636.791015625, 29058.541015625, 28355.6015625, 32423.015625, 33618.65234375, 25243.8125, 0.0, 0.0, 0.0, 193.0, 0.0, 1.0, 1.0, 0.0, 0.0, 1.0, 1.0, 256.0, 1.0, 1.608194748296495E9, 2020-12-17 14:30:48.296
147.0, 40011.87890625, 39239.24609375, 27991.37890625, 29409.552734375, 28628.806640625, 32753.306640625, 33916.24609375, 25552.087890625, 0.0, 0.0, 0.0, 193.0, 0.0, 1.0, 1.0, 0.0, 0.0, 1.0, 1.0, 256.0, 1.0, 1.608194748296497E9, 2020-12-17 14:30:48.296
148.0, 40469.8203125, 39758.25390625, 28497.265625, 29923.1953125, 29015.447265625, 33241.8046875, 34354.3828125, 26019.0390625, 0.0, 0.0, 0.0, 193.0, 0.0, 1.0, 1.0, 0.0, 0.0, 1.0, 1.0, 256.0, 1.0, 1.608194748296499E9, 2020-12-17 14:30:48.296
149.0, 40376.19140625, 39632.27734375, 28364.697265625, 29787.296875, 28905.744140625, 33119.71875, 34247.67578125, 25918.90234375, 0.0, 0.0, 0.0, 193.0, 0.0, 1.0, 1.0, 0.0, 0.0, 1.0, 1.0, 256.0, 1.0, 1.608194748296501E9, 2020-12-17 14:30:48.296
150.0, 39963.53125, 39149.859375, 27891.890625, 29310.244140625, 28543.376953125, 32661.775390625, 33842.796875, 25482.619140625, 0.0, 0.0, 0.0, 193.0, 0.0, 1.0, 1.0, 0.0, 0.0, 1.0, 1.0, 256.0, 1.0, 1.608194748296503E9, 2020-12-17 14:30:48.296
151.0, 39733.62109375, 38891.20703125, 27642.580078125, 29056.015625, 28361.5234375, 32417.248046875, 33629.7421875, 25255.525390625, 0.0, 0.0, 0.0, 193.0, 0.0, 1.0, 1.0, 0.0, 0.0, 1.0, 1.0, 256.0, 1.0, 1.60819474835614E9, 2020-12-17 14:30:48.356
152.0, 40014.58203125, 39232.78515625, 27980.740234375, 29386.26171875, 28629.185546875, 32735.89453125, 33916.19921875, 25556.89453125, 0.0, 0.0, 0.0, 193.0, 0.0, 1.0, 1.0, 0.0, 0.0, 1.0, 1.0, 256.0, 1.0, 1.60819474835615E9, 2020-12-17 14:30:48.356
153.0, 40475.8125, 39759.08203125, 28492.416015625, 29914.544921875, 29013.970703125, 33221.640625, 34351.74609375, 26015.5078125, 0.0, 0.0, 0.0, 193.0, 0.0, 1.0, 1.0, 0.0, 0.0, 1.0, 1.0, 256.0, 1.0, 1.608194748356153E9, 2020-12-17 14:30:48.356
154.0, 40389.9140625, 39644.83984375, 28375.896484375, 29809.0234375, 28907.2421875, 33111.62890625, 34264.375, 25928.3125, 0.0, 0.0, 0.0, 193.0, 0.0, 1.0, 1.0, 0.0, 0.0, 1.0, 1.0, 256.0, 1.0, 1.608194748356156E9, 2020-12-17 14:30:48.356
155.0, 39971.37890625, 39158.0859375, 27899.982421875, 29326.11328125, 28536.828125, 32662.916015625, 33855.26953125, 25488.9453125, 0.0, 0.0, 0.0, 193.0, 0.0, 1.0, 1.0, 0.0, 0.0, 1.0, 1.0, 256.0, 1.0, 1.608194748356158E9, 2020-12-17 14:30:48.356
156.0, 39735.09765625, 38890.76171875, 27646.603515625, 29066.162109375, 28353.947265625, 32428.4453125, 33631.28125, 25245.37890625, 0.0, 0.0, 0.0, 193.0, 0.0, 1.0, 1.0, 0.0, 0.0, 1.0, 1.0, 256.0, 1.0, 1.608194748356161E9, 2020-12-17 14:30:48.356
157.0, 40022.13671875, 39232.5390625, 27984.583984375, 29406.958984375, 28623.552734375, 32751.630859375, 33910.546875, 25537.693359375, 0.0, 0.0, 0.0, 193.0, 0.0, 1.0, 1.0, 0.0, 0.0, 1.0, 1.0, 256.0, 1.0, 1.608194748356164E9, 2020-12-17 14:30:48.356
158.0, 40482.62890625, 39760.80078125, 28497.333984375, 29925.876953125, 29018.28515625, 33229.46484375, 34353.2890625, 26019.6640625, 0.0, 0.0, 0.0, 193.0, 0.0, 1.0, 1.0, 0.0, 0.0, 1.0, 1.0, 256.0, 1.0, 1.608194748356167E9, 2020-12-17 14:30:48.356
159.0, 40385.734375, 39640.34765625, 28373.392578125, 29801.669921875, 28905.7890625, 33103.06640625, 34255.41015625, 25925.697265625, 0.0, 0.0, 0.0, 193.0, 0.0, 1.0, 1.0, 0.0, 0.0, 1.0, 1.0, 256.0, 1.0, 1.60819474835617E9, 2020-12-17 14:30:48.356
160.0, 39971.578125, 39151.71484375, 27899.892578125, 29322.76171875, 28545.814453125, 32668.615234375, 33858.01953125, 25491.404296875, 0.0, 0.0, 0.0, 193.0, 0.0, 1.0, 1.0, 0.0, 0.0, 1.0, 1.0, 256.0, 1.0, 1.608194748356173E9, 2020-12-17 14:30:48.356
161.0, 39721.1484375, 38883.71875, 27642.69140625, 29053.244140625, 28354.259765625, 32427.373046875, 33642.14453125, 25249.04296875, 0.0, 0.0, 0.0, 193.0, 0.0, 1.0, 1.0, 0.0, 0.0, 1.0, 1.0, 256.0, 1.0, 1.608194748356176E9, 2020-12-17 14:30:48.356
162.0, 39990.01953125, 39210.81640625, 27963.126953125, 29364.625, 28612.310546875, 32727.333984375, 33902.87890625, 25528.865234375, 0.0, 0.0, 0.0, 193.0, 0.0, 1.0, 1.0, 0.0, 0.0, 1.0, 1.0, 256.0, 1.0, 1.608194748356179E9, 2020-12-17 14:30:48.356
163.0, 40465.3515625, 39751.59375, 28486.939453125, 29897.69140625, 29016.228515625, 33219.4296875, 34344.1015625, 26009.875, 0.0, 0.0, 0.0, 193.0, 0.0, 1.0, 1.0, 0.0, 0.0, 1.0, 1.0, 256.0, 1.0, 1.608194748356182E9, 2020-12-17 14:30:48.356
164.0, 40388.90625, 39653.984375, 28384.2109375, 29803.412109375, 28907.64453125, 33111.9609375, 34266.69921875, 25931.77734375, 0.0, 0.0, 0.0, 193.0, 0.0, 1.0, 1.0, 0.0, 0.0, 1.0, 1.0, 256.0, 1.0, 1.608194748356185E9, 2020-12-17 14:30:48.356
165.0, 39969.1875, 39163.18359375, 27908.38671875, 29328.392578125, 28536.560546875, 32662.423828125, 33861.88671875, 25491.58203125, 0.0, 0.0, 0.0, 193.0, 0.0, 1.0, 1.0, 0.0, 0.0, 1.0, 1.0, 256.0, 1.0, 1.608194748356187E9, 2020-12-17 14:30:48.356
166.0, 39712.96875, 38874.77734375, 27632.87890625, 29050.404296875, 28339.685546875, 32405.53515625, 33626.5234375, 25237.107421875, 0.0, 0.0, 0.0, 193.0, 0.0, 1.0, 1.0, 0.0, 0.0, 1.0, 1.0, 256.0, 1.0, 1.608194748416368E9, 2020-12-17 14:30:48.416
167.0, 39978.73046875, 39195.2578125, 27950.587890625, 29365.787109375, 28603.705078125, 32702.814453125, 33887.390625, 25513.330078125, 0.0, 0.0, 0.0, 193.0, 0.0, 1.0, 1.0, 0.0, 0.0, 1.0, 1.0, 256.0, 1.0, 1.608194748416376E9, 2020-12-17 14:30:48.416
168.0, 40446.95703125, 39739.23046875, 28480.771484375, 29906.25390625, 28998.2578125, 33211.515625, 34342.4921875, 26002.990234375, 0.0, 0.0, 0.0, 193.0, 0.0, 1.0, 1.0, 0.0, 0.0, 1.0, 1.0, 256.0, 1.0, 1.60819474841638E9, 2020-12-17 14:30:48.416
169.0, 40391.03125, 39658.56640625, 28395.498046875, 29819.505859375, 28909.833984375, 33135.140625, 34276.3984375, 25940.29296875, 0.0, 0.0, 0.0, 193.0, 0.0, 1.0, 1.0, 0.0, 0.0, 1.0, 1.0, 256.0, 1.0, 1.608194748416393E9, 2020-12-17 14:30:48.416
170.0, 39981.5703125, 39169.26171875, 27918.9140625, 29331.8359375, 28548.048828125, 32686.05078125, 33870.2890625, 25508.458984375, 0.0, 0.0, 0.0, 193.0, 0.0, 1.0, 1.0, 0.0, 0.0, 1.0, 1.0, 256.0, 1.0, 1.608194748416396E9, 2020-12-17 14:30:48.416
171.0, 39727.7421875, 38880.79296875, 27641.529296875, 29052.125, 28360.697265625, 32429.98828125, 33632.19921875, 25250.943359375, 0.0, 0.0, 0.0, 193.0, 0.0, 1.0, 1.0, 0.0, 0.0, 1.0, 1.0, 256.0, 1.0, 1.6081947484164E9, 2020-12-17 14:30:48.416
172.0, 39978.23828125, 39193.76171875, 27951.056640625, 29364.201171875, 28604.017578125, 32708.447265625, 33885.53515625, 25524.41796875, 0.0, 0.0, 0.0, 193.0, 0.0, 1.0, 1.0, 0.0, 0.0, 1.0, 1.0, 256.0, 1.0, 1.608194748416403E9, 2020-12-17 14:30:48.416
173.0, 40451.046875, 39734.62890625, 28478.3125, 29901.73828125, 29012.072265625, 33210.51171875, 34333.1484375, 26011.1484375, 0.0, 0.0, 0.0, 193.0, 0.0, 1.0, 1.0, 0.0, 0.0, 1.0, 1.0, 256.0, 1.0, 1.608194748416406E9, 2020-12-17 14:30:48.416
174.0, 40400.8203125, 39660.95703125, 28399.275390625, 29826.546875, 28931.60546875, 33140.86328125, 34276.7578125, 25950.173828125, 0.0, 0.0, 0.0, 193.0, 0.0, 1.0, 1.0, 0.0, 0.0, 1.0, 1.0, 256.0, 1.0, 1.608194748416409E9, 2020-12-17 14:30:48.416
175.0, 39970.70703125, 39166.9140625, 27912.544921875, 29330.046875, 28537.275390625, 32668.1015625, 33856.25390625, 25491.984375, 0.0, 0.0, 0.0, 193.0, 0.0, 1.0, 1.0, 0.0, 0.0, 1.0, 1.0, 256.0, 1.0, 1.608194748416413E9, 2020-12-17 14:30:48.416
176.0, 39713.4609375, 38875.5625, 27632.87890625, 29045.3984375, 28338.412109375, 32399.814453125, 33619.21484375, 25231.900390625, 0.0, 0.0, 0.0, 193.0, 0.0, 1.0, 1.0, 0.0, 0.0, 1.0, 1.0, 256.0, 1.0, 1.608194748416416E9, 2020-12-17 14:30:48.416
177.0, 39968.4921875, 39178.00390625, 27933.578125, 29345.671875, 28584.59375, 32685.9375, 33871.4765625, 25502.423828125, 0.0, 0.0, 0.0, 193.0, 0.0, 1.0, 1.0, 0.0, 0.0, 1.0, 1.0, 256.0, 1.0, 1.60819474841642E9, 2020-12-17 14:30:48.416
178.0, 40443.71484375, 39728.75, 28467.626953125, 29891.232421875, 28987.953125, 33196.09375, 34327.76171875, 25997.849609375, 0.0, 0.0, 0.0, 193.0, 0.0, 1.0, 1.0, 0.0, 0.0, 1.0, 1.0, 256.0, 1.0, 1.608194748416423E9, 2020-12-17 14:30:48.416
179.0, 40409.984375, 39671.6171875, 28409.53515625, 29843.35546875, 28926.240234375, 33146.36328125, 34292.203125, 25958.599609375, 0.0, 0.0, 0.0, 193.0, 0.0, 1.0, 1.0, 0.0, 0.0, 1.0, 1.0, 256.0, 1.0, 1.608194748416427E9, 2020-12-17 14:30:48.416
180.0, 39987.6484375, 39182.515625, 27933.623046875, 29355.572265625, 28554.642578125, 32693.962890625, 33887.1640625, 25521.802734375, 0.0, 0.0, 0.0, 193.0, 0.0, 1.0, 1.0, 0.0, 0.0, 1.0, 1.0, 256.0, 1.0, 1.60819474841643E9, 2020-12-17 14:30:48.416
181.0, 39717.70703125, 38876.0078125, 27636.09765625, 29046.515625, 28341.02734375, 32414.0078125, 33621.359375, 25235.9453125, 0.0, 0.0, 0.0, 193.0, 0.0, 1.0, 1.0, 0.0, 0.0, 1.0, 1.0, 256.0, 1.0, 1.608194748476805E9, 2020-12-17 14:30:48.476
182.0, 39963.1953125, 39167.98828125, 27924.01171875, 29333.51171875, 28581.15234375, 32685.46875, 33857.6171875, 25490.46484375, 0.0, 0.0, 0.0, 193.0, 0.0, 1.0, 1.0, 0.0, 0.0, 1.0, 1.0, 256.0, 1.0, 1.608194748476812E9, 2020-12-17 14:30:48.476
183.0, 40439.9609375, 39720.90234375, 28463.134765625, 29881.888671875, 28983.640625, 33189.74609375, 34314.375, 25990.02734375, 0.0, 0.0, 0.0, 193.0, 0.0, 1.0, 1.0, 0.0, 0.0, 1.0, 1.0, 256.0, 1.0, 1.608194748476815E9, 2020-12-17 14:30:48.476
184.0, 40410.1640625, 39669.0234375, 28406.294921875, 29836.73828125, 28914.259765625, 33131.2734375, 34267.859375, 25952.765625, 0.0, 0.0, 0.0, 193.0, 0.0, 1.0, 1.0, 0.0, 0.0, 1.0, 1.0, 256.0, 1.0, 1.608194748476818E9, 2020-12-17 14:30:48.476
185.0, 39989.7734375, 39177.01953125, 27926.73828125, 29355.841796875, 28550.865234375, 32690.162109375, 33867.2265625, 25515.0078125, 0.0, 0.0, 0.0, 193.0, 0.0, 1.0, 1.0, 0.0, 0.0, 1.0, 1.0, 256.0, 1.0, 1.608194748476821E9, 2020-12-17 14:30:48.476
186.0, 39717.796875, 38876.25390625, 27637.640625, 29053.69140625, 28339.484375, 32412.53125, 33620.80078125, 25241.556640625, 0.0, 0.0, 0.0, 193.0, 0.0, 1.0, 1.0, 0.0, 0.0, 1.0, 1.0, 256.0, 1.0, 1.608194748476824E9, 2020-12-17 14:30:48.476
187.0, 39946.38671875, 39154.578125, 27912.43359375, 29318.759765625, 28566.802734375, 32664.994140625, 33846.8203125, 25485.279296875, 0.0, 0.0, 0.0, 193.0, 0.0, 1.0, 1.0, 0.0, 0.0, 1.0, 1.0, 256.0, 1.0, 1.608194748476827E9, 2020-12-17 14:30:48.476
188.0, 40421.40625, 39706.44140625, 28448.896484375, 29851.06640625, 28969.40234375, 33171.21875, 34302.70703125, 25977.888671875, 0.0, 0.0, 0.0, 193.0, 0.0, 1.0, 1.0, 0.0, 0.0, 1.0, 1.0, 256.0, 1.0, 1.60819474847683E9, 2020-12-17 14:30:48.476
189.0, 40411.90625, 39677.1171875, 28414.609375, 29826.994140625, 28924.69921875, 33141.15234375, 34284.1328125, 25961.68359375, 0.0, 0.0, 0.0, 193.0, 0.0, 1.0, 1.0, 0.0, 0.0, 1.0, 1.0, 256.0, 1.0, 1.608194748476833E9, 2020-12-17 14:30:48.476
190.0, 40002.9609375, 39188.73046875, 27939.43359375, 29365.18359375, 28566.265625, 32698.142578125, 33887.56640625, 25527.12109375, 0.0, 0.0, 0.0, 193.0, 0.0, 1.0, 1.0, 0.0, 0.0, 1.0, 1.0, 256.0, 1.0, 1.608194748476835E9, 2020-12-17 14:30:48.476
191.0, 39716.23046875, 38875.0, 27638.958984375, 29065.1796875, 28334.568359375, 32406.49609375, 33625.515625, 25239.611328125, 0.0, 0.0, 0.0, 193.0, 0.0, 1.0, 1.0, 0.0, 0.0, 1.0, 1.0, 256.0, 1.0, 1.608194748476838E9, 2020-12-17 14:30:48.476
192.0, 39942.85546875, 39147.1796875, 27910.287109375, 29336.595703125, 28560.3203125, 32668.50390625, 33845.32421875, 25480.607421875, 0.0, 0.0, 0.0, 193.0, 0.0, 1.0, 1.0, 0.0, 0.0, 1.0, 1.0, 256.0, 1.0, 1.608194748476853E9, 2020-12-17 14:30:48.476
193.0, 40419.26171875, 39700.36328125, 28449.34375, 29874.40234375, 28972.642578125, 33173.09375, 34309.32421875, 25976.7265625, 0.0, 0.0, 0.0, 193.0, 0.0, 1.0, 1.0, 0.0, 0.0, 1.0, 1.0, 256.0, 1.0, 1.608194748476855E9, 2020-12-17 14:30:48.476
194.0, 40408.66796875, 39680.1796875, 28418.72265625, 29844.697265625, 28926.107421875, 33130.76171875, 34286.30078125, 25958.666015625, 0.0, 0.0, 0.0, 193.0, 0.0, 1.0, 1.0, 0.0, 0.0, 1.0, 1.0, 256.0, 1.0, 1.608194748476858E9, 2020-12-17 14:30:48.476
195.0, 39986.6875, 39184.953125, 27933.935546875, 29358.634765625, 28544.875, 32682.25, 33863.5859375, 25509.59765625, 0.0, 0.0, 0.0, 193.0, 0.0, 1.0, 1.0, 0.0, 0.0, 1.0, 1.0, 256.0, 1.0, 1.608194748476861E9, 2020-12-17 14:30:48.476
196.0, 39715.33984375, 38871.44921875, 27633.103515625, 29049.689453125, 28334.76953125, 32398.13671875, 33606.046875, 25225.171875, 0.0, 0.0, 0.0, 193.0, 0.0, 1.0, 1.0, 0.0, 0.0, 1.0, 1.0, 256.0, 1.0, 1.608194748536893E9, 2020-12-17 14:30:48.536
197.0, 39945.94140625, 39141.76953125, 27904.564453125, 29320.8828125, 28566.220703125, 32661.73046875, 33840.5859375, 25464.939453125, 0.0, 0.0, 0.0, 193.0, 0.0, 1.0, 1.0, 0.0, 0.0, 1.0, 1.0, 256.0, 1.0, 1.608194748536902E9, 2020-12-17 14:30:48.536
198.0, 40429.1171875, 39696.49609375, 28443.3984375, 29866.17578125, 28975.50390625, 33178.32421875, 34302.28125, 25967.541015625, 0.0, 0.0, 0.0, 193.0, 0.0, 1.0, 1.0, 0.0, 0.0, 1.0, 1.0, 256.0, 1.0, 1.608194748536906E9, 2020-12-17 14:30:48.536
199.0, 40425.07421875, 39684.3828125, 28423.86328125, 29848.763671875, 28930.353515625, 33146.18359375, 34288.42578125, 25966.802734375, 0.0, 0.0, 0.0, 193.0, 0.0, 1.0, 1.0, 0.0, 0.0, 1.0, 1.0, 256.0, 1.0, 1.60819474853691E9, 2020-12-17 14:30:48.536
200.0, 40004.5234375, 39197.15625, 27950.1171875, 29371.041015625, 28562.130859375, 32689.3125, 33879.296875, 25527.880859375, 0.0, 0.0, 0.0, 193.0, 0.0, 1.0, 1.0, 0.0, 0.0, 1.0, 1.0, 256.0, 1.0, 1.608194748536913E9, 2020-12-17 14:30:48.536
201.0, 39713.70703125, 38870.41796875, 27636.388671875, 29046.783203125, 28338.724609375, 32392.951171875, 33606.33984375, 25233.28515625, 0.0, 0.0, 0.0, 193.0, 0.0, 1.0, 1.0, 0.0, 0.0, 1.0, 1.0, 256.0, 1.0, 1.608194748536917E9, 2020-12-17 14:30:48.536
202.0, 39934.31640625, 39126.99609375, 27892.091796875, 29300.521484375, 28553.66015625, 32636.072265625, 33815.3046875, 25451.953125, 0.0, 0.0, 0.0, 193.0, 0.0, 1.0, 1.0, 0.0, 0.0, 1.0, 1.0, 256.0, 1.0, 1.60819474853692E9, 2020-12-17 14:30:48.536
203.0, 40415.640625, 39689.453125, 28438.66015625, 29855.671875, 28958.203125, 33156.5546875, 34287.640625, 25958.376953125, 0.0, 0.0, 0.0, 193.0, 0.0, 1.0, 1.0, 0.0, 0.0, 1.0, 1.0, 256.0, 1.0, 1.608194748536924E9, 2020-12-17 14:30:48.536
204.0, 40432.60546875, 39699.37890625, 28442.37109375, 29867.025390625, 28939.3828125, 33160.82421875, 34304.65234375, 25980.728515625, 0.0, 0.0, 0.0, 193.0, 0.0, 1.0, 1.0, 0.0, 0.0, 1.0, 1.0, 256.0, 1.0, 1.608194748536927E9, 2020-12-17 14:30:48.536
205.0, 40016.52734375, 39204.3984375, 27956.578125, 29368.693359375, 28566.1328125, 32699.37109375, 33885.87109375, 25537.962890625, 0.0, 0.0, 0.0, 193.0, 0.0, 1.0, 1.0, 0.0, 0.0, 1.0, 1.0, 256.0, 1.0, 1.608194748536931E9, 2020-12-17 14:30:48.536
206.0, 39728.79296875, 38879.7421875, 27643.83203125, 29041.419921875, 28337.607421875, 32397.310546875, 33611.74609375, 25233.8671875, 0.0, 0.0, 0.0, 193.0, 0.0, 1.0, 1.0, 0.0, 0.0, 1.0, 1.0, 256.0, 1.0, 1.608194748536934E9, 2020-12-17 14:30:48.536
207.0, 39932.59765625, 39124.40234375, 27890.70703125, 29299.560546875, 28543.98046875, 32635.84765625, 33818.65625, 25438.498046875, 0.0, 0.0, 0.0, 193.0, 0.0, 1.0, 1.0, 0.0, 0.0, 1.0, 1.0, 256.0, 1.0, 1.608194748536938E9, 2020-12-17 14:30:48.536
208.0, 40415.171875, 39683.8671875, 28430.03125, 29852.453125, 28959.5234375, 33145.0, 34274.85546875, 25941.970703125, 0.0, 0.0, 0.0, 193.0, 0.0, 1.0, 1.0, 0.0, 0.0, 1.0, 1.0, 256.0, 1.0, 1.608194748536941E9, 2020-12-17 14:30:48.536
209.0, 40434.37109375, 39701.63671875, 28437.966796875, 29860.455078125, 28938.4453125, 33146.765625, 34284.87109375, 25964.701171875, 0.0, 0.0, 0.0, 193.0, 0.0, 1.0, 1.0, 0.0, 0.0, 1.0, 1.0, 256.0, 1.0, 1.608194748536945E9, 2020-12-17 14:30:48.536
210.0, 40020.328125, 39211.4609375, 27964.802734375, 29380.13671875, 28573.6640625, 32706.166015625, 33885.0859375, 25534.36328125, 0.0, 0.0, 0.0, 193.0, 0.0, 1.0, 1.0, 0.0, 0.0, 1.0, 1.0, 256.0, 1.0, 1.608194748536948E9, 2020-12-17 14:30:48.536
211.0, 39731.90234375, 38879.40625, 27645.84375, 29059.30078125, 28342.01171875, 32407.94921875, 33611.6796875, 25234.73828125, 0.0, 0.0, 0.0, 193.0, 0.0, 1.0, 1.0, 0.0, 0.0, 1.0, 1.0, 256.0, 1.0, 1.608194748596385E9, 2020-12-17 14:30:48.596
212.0, 39937.58203125, 39125.453125, 27890.796875, 29308.1875, 28542.908203125, 32646.46484375, 33820.109375, 25440.263671875, 0.0, 0.0, 0.0, 193.0, 0.0, 1.0, 1.0, 0.0, 0.0, 1.0, 1.0, 256.0, 1.0, 1.608194748596399E9, 2020-12-17 14:30:48.596
213.0, 40434.6171875, 39696.65234375, 28442.392578125, 29876.2578125, 28975.146484375, 33174.99609375, 34283.3515625, 25936.806640625, 0.0, 0.0, 0.0, 193.0, 0.0, 1.0, 1.0, 0.0, 0.0, 1.0, 1.0, 256.0, 1.0, 1.608194748596405E9, 2020-12-17 14:30:48.596
214.0, 40466.78125, 39728.50390625, 28470.734375, 29907.951171875, 28978.029296875, 33195.3125, 34316.3203125, 25984.6171875, 0.0, 0.0, 0.0, 193.0, 0.0, 1.0, 1.0, 0.0, 0.0, 1.0, 1.0, 256.0, 1.0, 1.608194748596412E9, 2020-12-17 14:30:48.596
215.0, 40047.6875, 39240.49609375, 27991.1328125, 29415.20703125, 28608.623046875, 32743.314453125, 33912.0, 25554.546875, 0.0, 0.0, 0.0, 193.0, 0.0, 1.0, 1.0, 0.0, 0.0, 1.0, 1.0, 256.0, 1.0, 1.608194748596437E9, 2020-12-17 14:30:48.596
216.0, 39751.2578125, 38895.23046875, 27658.361328125, 29069.76171875, 28377.169921875, 32416.30859375, 33632.578125, 25266.92578125, 0.0, 0.0, 0.0, 193.0, 0.0, 1.0, 1.0, 0.0, 0.0, 1.0, 1.0, 256.0, 1.0, 1.608194748596443E9, 2020-12-17 14:30:48.596
217.0, 39932.91015625, 39114.9921875, 27880.24609375, 29285.90234375, 28561.662109375, 32616.916015625, 33814.3203125, 25445.76171875, 0.0, 0.0, 0.0, 193.0, 0.0, 1.0, 1.0, 0.0, 0.0, 1.0, 1.0, 256.0, 1.0, 1.608194748596449E9, 2020-12-17 14:30:48.596
218.0, 40408.44140625, 39674.859375, 28426.3671875, 29839.48828125, 28970.474609375, 33133.7109375, 34279.4609375, 25939.0859375, 0.0, 0.0, 0.0, 193.0, 0.0, 1.0, 1.0, 0.0, 0.0, 1.0, 1.0, 256.0, 1.0, 1.608194748596455E9, 2020-12-17 14:30:48.596
219.0, 40453.59375, 39704.85546875, 28448.650390625, 29884.21484375, 28969.06640625, 33158.54296875, 34304.18359375, 25980.99609375, 0.0, 0.0, 0.0, 193.0, 0.0, 1.0, 1.0, 0.0, 0.0, 1.0, 1.0, 256.0, 1.0, 1.608194748596461E9, 2020-12-17 14:30:48.596
220.0, 40038.85546875, 39220.40234375, 27978.638671875, 29408.859375, 28596.126953125, 32711.396484375, 33911.08203125, 25552.69140625, 0.0, 0.0, 0.0, 193.0, 0.0, 1.0, 1.0, 0.0, 0.0, 1.0, 1.0, 256.0, 1.0, 1.608194748596468E9, 2020-12-17 14:30:48.596
221.0, 39737.375, 38879.359375, 27650.314453125, 29072.66796875, 28361.994140625, 32405.982421875, 33626.1640625, 25243.857421875, 0.0, 0.0, 0.0, 193.0, 0.0, 1.0, 1.0, 0.0, 0.0, 1.0, 1.0, 256.0, 1.0, 1.608194748596474E9, 2020-12-17 14:30:48.596
222.0, 39916.81640625, 39088.3046875, 27855.748046875, 29273.654296875, 28549.501953125, 32607.013671875, 33790.984375, 25424.75, 0.0, 0.0, 0.0, 193.0, 0.0, 1.0, 1.0, 0.0, 0.0, 1.0, 1.0, 256.0, 1.0, 1.60819474859648E9, 2020-12-17 14:30:48.596
223.0, 40399.8359375, 39649.06640625, 28401.779296875, 29823.998046875, 28963.791015625, 33121.5078125, 34255.96875, 25928.6484375, 0.0, 0.0, 0.0, 193.0, 0.0, 1.0, 1.0, 0.0, 0.0, 1.0, 1.0, 256.0, 1.0, 1.608194748596486E9, 2020-12-17 14:30:48.596
224.0, 40448.453125, 39702.10546875, 28452.65234375, 29883.587890625, 28969.291015625, 33169.94140625, 34312.4296875, 25990.33984375, 0.0, 0.0, 0.0, 193.0, 0.0, 1.0, 1.0, 0.0, 0.0, 1.0, 1.0, 256.0, 1.0, 1.608194748596492E9, 2020-12-17 14:30:48.596
225.0, 40033.26953125, 39220.40234375, 27984.8515625, 29412.681640625, 28600.263671875, 32733.66015625, 33918.90625, 25558.50390625, 0.0, 0.0, 0.0, 193.0, 0.0, 1.0, 1.0, 0.0, 0.0, 1.0, 1.0, 256.0, 1.0, 1.608194748596499E9, 2020-12-17 14:30:48.596
226.0, 39723.09375, 38858.3046875, 27637.88671875, 29061.333984375, 28353.03125, 32407.7265625, 33619.48046875, 25236.03515625, 0.0, 0.0, 0.0, 193.0, 0.0, 1.0, 1.0, 0.0, 0.0, 1.0, 1.0, 256.0, 1.0, 1.608194748656096E9, 2020-12-17 14:30:48.656
227.0, 39898.9140625, 39066.66796875, 27844.21484375, 29259.818359375, 28531.84375, 32596.978515625, 33784.8828125, 25421.287109375, 0.0, 0.0, 0.0, 193.0, 0.0, 1.0, 1.0, 0.0, 0.0, 1.0, 1.0, 256.0, 1.0, 1.608194748656102E9, 2020-12-17 14:30:48.656
228.0, 40382.0234375, 39620.9453125, 28386.0, 29802.205078125, 28956.013671875, 33105.01171875, 34245.28515625, 25925.20703125, 0.0, 0.0, 0.0, 193.0, 0.0, 1.0, 1.0, 0.0, 0.0, 1.0, 1.0, 256.0, 1.0, 1.608194748656104E9, 2020-12-17 14:30:48.656
229.0, 40456.76953125, 39690.86328125, 28445.923828125, 29867.80859375, 28989.384765625, 33156.0625, 34304.31640625, 26008.51171875, 0.0, 0.0, 0.0, 193.0, 0.0, 1.0, 1.0, 0.0, 0.0, 1.0, 1.0, 256.0, 1.0, 1.608194748656105E9, 2020-12-17 14:30:48.656
230.0, 40049.7890625, 39207.21484375, 27973.05078125, 29405.349609375, 28629.4765625, 32713.85546875, 33908.890625, 25594.265625, 0.0, 0.0, 0.0, 193.0, 0.0, 1.0, 1.0, 0.0, 0.0, 1.0, 1.0, 256.0, 1.0, 1.608194748656107E9, 2020-12-17 14:30:48.656
231.0, 39735.34375, 38855.578125, 27636.388671875, 29073.962890625, 28361.658203125, 32401.6015625, 33620.93359375, 25257.984375, 0.0, 0.0, 0.0, 193.0, 0.0, 1.0, 1.0, 0.0, 0.0, 1.0, 1.0, 256.0, 1.0, 1.608194748656109E9, 2020-12-17 14:30:48.656
232.0, 39883.19921875, 39047.33203125, 27830.736328125, 29256.689453125, 28513.380859375, 32570.40234375, 33770.3984375, 25409.931640625, 0.0, 0.0, 0.0, 193.0, 0.0, 1.0, 1.0, 0.0, 0.0, 1.0, 1.0, 256.0, 1.0, 1.60819474865611E9, 2020-12-17 14:30:48.656
233.0, 40383.58984375, 39597.92578125, 28371.044921875, 29816.689453125, 28959.5234375, 33107.71484375, 34248.68359375, 25921.853515625, 0.0, 0.0, 0.0, 193.0, 0.0, 1.0, 1.0, 0.0, 0.0, 1.0, 1.0, 256.0, 1.0, 1.608194748656112E9, 2020-12-17 14:30:48.656
234.0, 40466.55859375, 39672.421875, 28441.72265625, 29896.529296875, 29000.0234375, 33182.37109375, 34320.296875, 26008.17578125, 0.0, 0.0, 0.0, 193.0, 0.0, 1.0, 1.0, 0.0, 0.0, 1.0, 1.0, 256.0, 1.0, 1.608194748656114E9, 2020-12-17 14:30:48.656
235.0, 40046.58984375, 39197.671875, 27976.6484375, 29418.716796875, 28617.18359375, 32724.830078125, 33908.17578125, 25567.443359375, 0.0, 0.0, 0.0, 193.0, 0.0, 1.0, 1.0, 0.0, 0.0, 1.0, 1.0, 256.0, 1.0, 1.608194748656116E9, 2020-12-17 14:30:48.656
236.0, 39727.83203125, 38839.08203125, 27627.001953125, 29056.462890625, 28356.6953125, 32388.146484375, 33601.0390625, 25235.140625, 0.0, 0.0, 0.0, 193.0, 0.0, 1.0, 1.0, 0.0, 0.0, 1.0, 1.0, 256.0, 1.0, 1.608194748656117E9, 2020-12-17 14:30:48.656
237.0, 39880.98828125, 39018.5234375, 27805.546875, 29228.525390625, 28520.84765625, 32557.974609375, 33748.7421875, 25392.095703125, 0.0, 0.0, 0.0, 193.0, 0.0, 1.0, 1.0, 0.0, 0.0, 1.0, 1.0, 256.0, 1.0, 1.608194748656119E9, 2020-12-17 14:30:48.656
238.0, 40372.5, 39585.96484375, 28363.892578125, 29796.662109375, 28946.916015625, 33093.27734375, 34238.01953125, 25924.357421875, 0.0, 0.0, 0.0, 193.0, 0.0, 1.0, 1.0, 0.0, 0.0, 1.0, 1.0, 256.0, 1.0, 1.608194748656127E9, 2020-12-17 14:30:48.656
239.0, 40453.21484375, 39667.59375, 28440.158203125, 29879.9453125, 28976.95703125, 33162.0078125, 34317.90625, 26008.689453125, 0.0, 0.0, 0.0, 193.0, 0.0, 1.0, 1.0, 0.0, 0.0, 1.0, 1.0, 256.0, 1.0, 1.608194748656129E9, 2020-12-17 14:30:48.656
240.0, 40048.35546875, 39200.98046875, 27982.796875, 29417.576171875, 28612.04296875, 32724.13671875, 33921.4765625, 25584.990234375, 0.0, 0.0, 0.0, 193.0, 0.0, 1.0, 1.0, 0.0, 0.0, 1.0, 1.0, 256.0, 1.0, 1.608194748656131E9, 2020-12-17 14:30:48.656
241.0, 39741.04296875, 38841.4296875, 27634.890625, 29066.966796875, 28372.677734375, 32398.94140625, 33617.42578125, 25272.333984375, 0.0, 0.0, 0.0, 193.0, 0.0, 1.0, 1.0, 0.0, 0.0, 1.0, 1.0, 256.0, 1.0, 1.608194748716413E9, 2020-12-17 14:30:48.716
242.0, 39872.47265625, 39004.484375, 27796.5390625, 29217.70703125, 28510.72265625, 32540.62890625, 33749.32421875, 25406.802734375, 0.0, 0.0, 0.0, 193.0, 0.0, 1.0, 1.0, 0.0, 0.0, 1.0, 1.0, 256.0, 1.0, 1.608194748716421E9, 2020-12-17 14:30:48.716
243.0, 40359.89453125, 39561.51171875, 28341.20703125, 29776.9921875, 28941.150390625, 33073.33984375, 34220.51953125, 25908.822265625, 0.0, 0.0, 0.0, 193.0, 0.0, 1.0, 1.0, 0.0, 0.0, 1.0, 1.0, 256.0, 1.0, 1.608194748716422E9, 2020-12-17 14:30:48.716
244.0, 40446.73046875, 39655.6796875, 28428.244140625, 29867.94140625, 28979.013671875, 33148.75390625, 34303.625, 25998.02734375, 0.0, 0.0, 0.0, 193.0, 0.0, 1.0, 1.0, 0.0, 0.0, 1.0, 1.0, 256.0, 1.0, 1.608194748716424E9, 2020-12-17 14:30:48.716
245.0, 40038.9453125, 39182.91796875, 27965.96484375, 29400.857421875, 28609.359375, 32698.923828125, 33905.671875, 25571.9375, 0.0, 0.0, 0.0, 193.0, 0.0, 1.0, 1.0, 0.0, 0.0, 1.0, 1.0, 256.0, 1.0, 1.608194748716426E9, 2020-12-17 14:30:48.716
246.0, 39730.1796875, 38833.94140625, 27630.17578125, 29050.8515625, 28358.216796875, 32370.80078125, 33613.08984375, 25250.720703125, 0.0, 0.0, 0.0, 193.0, 0.0, 1.0, 1.0, 0.0, 0.0, 1.0, 1.0, 256.0, 1.0, 1.608194748716427E9, 2020-12-17 14:30:48.716
247.0, 39867.26171875, 39002.2265625, 27800.607421875, 29221.955078125, 28513.58203125, 32536.896484375, 33753.0546875, 25388.763671875, 0.0, 0.0, 0.0, 193.0, 0.0, 1.0, 1.0, 0.0, 0.0, 1.0, 1.0, 256.0, 1.0, 1.608194748716429E9, 2020-12-17 14:30:48.716
248.0, 40350.39453125, 39546.73828125, 28332.376953125, 29773.439453125, 28952.5703125, 33058.765625, 34208.09375, 25887.41015625, 0.0, 0.0, 0.0, 193.0, 0.0, 1.0, 1.0, 0.0, 0.0, 1.0, 1.0, 256.0, 1.0, 1.60819474871643E9, 2020-12-17 14:30:48.716
249.0, 40466.2890625, 39657.4453125, 28430.2109375, 29881.443359375, 29020.921875, 33150.5859375, 34291.5546875, 25988.841796875, 0.0, 0.0, 0.0, 193.0, 0.0, 1.0, 1.0, 0.0, 0.0, 1.0, 1.0, 256.0, 1.0, 1.608194748716432E9, 2020-12-17 14:30:48.716
250.0, 40042.27734375, 39191.59375, 27974.1015625, 29405.23828125, 28631.82421875, 32696.48828125, 33902.65625, 25564.494140625, 0.0, 0.0, 0.0, 193.0, 0.0, 1.0, 1.0, 0.0, 0.0, 1.0, 1.0, 256.0, 1.0, 1.608194748716433E9, 2020-12-17 14:30:48.716
251.0, 39741.80078125, 38845.85546875, 27645.10546875, 29068.64453125, 28389.62109375, 32395.923828125, 33626.41015625, 25244.349609375, 0.0, 0.0, 0.0, 193.0, 0.0, 1.0, 1.0, 0.0, 0.0, 1.0, 1.0, 256.0, 1.0, 1.608194748716435E9, 2020-12-17 14:30:48.716
252.0, 39885.390625, 39004.46484375, 27813.34765625, 29242.16015625, 28552.83203125, 32580.19140625, 33773.796875, 25389.748046875, 0.0, 0.0, 0.0, 193.0, 0.0, 1.0, 1.0, 0.0, 0.0, 1.0, 1.0, 256.0, 1.0, 1.608194748716437E9, 2020-12-17 14:30:48.716
253.0, 40364.3203125, 39553.0625, 28347.2421875, 29791.275390625, 28976.2421875, 33093.8359375, 34233.57421875, 25905.626953125, 0.0, 0.0, 0.0, 193.0, 0.0, 1.0, 1.0, 0.0, 0.0, 1.0, 1.0, 256.0, 1.0, 1.608194748716438E9, 2020-12-17 14:30:48.716
254.0, 40469.08203125, 39667.73046875, 28453.12109375, 29904.6875, 29040.81640625, 33198.84375, 34348.328125, 26056.880859375, 0.0, 0.0, 0.0, 193.0, 0.0, 1.0, 1.0, 0.0, 0.0, 1.0, 1.0, 256.0, 1.0, 1.60819474871644E9, 2020-12-17 14:30:48.716
255.0, 40064.78515625, 39210.30078125, 28007.80859375, 29441.248046875, 28647.3125, 32756.748046875, 33976.953125, 25664.673828125, 0.0, 0.0, 0.0, 193.0, 0.0, 1.0, 1.0, 0.0, 0.0, 1.0, 1.0, 256.0, 1.0, 1.608194748716441E9, 2020-12-17 14:30:48.716
0.0, 39746.85546875, 38842.390625, 27651.431640625, 29075.7734375, 28369.50390625, 32407.81640625, 33667.29296875, 25338.451171875, 0.0, 0.0, 0.0, 193.0, 0.0, 1.0, 1.0, 0.0, 0.0, 1.0, 1.0, 256.0, 1.0, 1.608194748776758E9, 2020-12-17 14:30:48.776
1.0, 39844.328125, 38975.98828125, 27783.12890625, 29202.419921875, 28489.287109375, 32521.072265625, 33762.84375, 25436.8203125, 0.0, 0.0, 0.0, 193.0, 0.0, 1.0, 1.0, 0.0, 0.0, 1.0, 1.0, 256.0, 1.0, 1.608194748776763E9, 2020-12-17 14:30:48.776
2.0, 40310.49609375, 39527.11328125, 28320.330078125, 29740.357421875, 28880.396484375, 33020.54296875, 34217.48046875, 25932.26953125, 0.0, 0.0, 0.0, 193.0, 0.0, 1.0, 1.0, 0.0, 0.0, 1.0, 1.0, 256.0, 1.0, 1.608194748776765E9, 2020-12-17 14:30:48.776
3.0, 40434.6171875, 39650.8515625, 28430.8359375, 29861.05859375, 28943.451171875, 33123.96484375, 34305.03125, 26045.34765625, 0.0, 0.0, 0.0, 193.0, 0.0, 1.0, 1.0, 0.0, 0.0, 1.0, 1.0, 256.0, 1.0, 1.608194748776767E9, 2020-12-17 14:30:48.776
4.0, 40040.33203125, 39178.6484375, 27967.484375, 29398.779296875, 28569.73046875, 32678.0703125, 33895.703125, 25601.10546875, 0.0, 0.0, 0.0, 193.0, 0.0, 1.0, 1.0, 0.0, 0.0, 1.0, 1.0, 256.0, 1.0, 1.608194748776769E9, 2020-12-17 14:30:48.776
5.0, 39711.5625, 38796.1015625, 27600.58203125, 29023.828125, 28301.083984375, 32326.298828125, 33576.1875, 25244.818359375, 0.0, 0.0, 0.0, 193.0, 0.0, 1.0, 1.0, 0.0, 0.0, 1.0, 1.0, 256.0, 1.0, 1.608194748776771E9, 2020-12-17 14:30:48.776
6.0, 39815.921875, 38934.45703125, 27736.2109375, 29153.55859375, 28437.69921875, 32452.40625, 33682.58203125, 25364.06640625, 0.0, 0.0, 0.0, 193.0, 0.0, 1.0, 1.0, 0.0, 0.0, 1.0, 1.0, 256.0, 1.0, 1.608194748776779E9, 2020-12-17 14:30:48.776
7.0, 40325.09375, 39515.15625, 28302.89453125, 29731.640625, 28892.064453125, 33002.59375, 34180.12890625, 25874.9375, 0.0, 0.0, 0.0, 193.0, 0.0, 1.0, 1.0, 0.0, 0.0, 1.0, 1.0, 256.0, 1.0, 1.608194748776781E9, 2020-12-17 14:30:48.776
8.0, 40457.2578125, 39656.53125, 28438.2578125, 29873.28515625, 28978.90234375, 33133.5078125, 34304.18359375, 25987.12109375, 0.0, 0.0, 0.0, 193.0, 0.0, 1.0, 1.0, 0.0, 0.0, 1.0, 1.0, 256.0, 1.0, 1.608194748776783E9, 2020-12-17 14:30:48.776
9.0, 40065.6796875, 39192.7109375, 27987.51171875, 29415.69921875, 28621.4296875, 32706.501953125, 33914.12109375, 25576.072265625, 0.0, 0.0, 0.0, 193.0, 0.0, 1.0, 1.0, 0.0, 0.0, 1.0, 1.0, 256.0, 1.0, 1.608194748776785E9, 2020-12-17 14:30:48.776
10.0, 39740.73046875, 38822.83203125, 27630.578125, 29053.6015625, 28364.697265625, 32368.095703125, 33607.87890625, 25235.85546875, 0.0, 0.0, 0.0, 193.0, 0.0, 1.0, 1.0, 0.0, 0.0, 1.0, 1.0, 256.0, 1.0, 1.608194748776786E9, 2020-12-17 14:30:48.776
11.0, 39839.03125, 38953.3671875, 27762.162109375, 29190.013671875, 28476.076171875, 32491.166015625, 33716.5546875, 25344.6875, 0.0, 0.0, 0.0, 193.0, 0.0, 1.0, 1.0, 0.0, 0.0, 1.0, 1.0, 256.0, 1.0, 1.608194748776788E9, 2020-12-17 14:30:48.776
12.0, 40321.0703125, 39516.5625, 28311.34375, 29753.546875, 28906.2578125, 33033.46484375, 34194.03125, 25862.48828125, 0.0, 0.0, 0.0, 193.0, 0.0, 1.0, 1.0, 0.0, 0.0, 1.0, 1.0, 256.0, 1.0, 1.60819474877679E9, 2020-12-17 14:30:48.776
13.0, 40475.38671875, 39674.2109375, 28459.87109375, 29910.634765625, 29012.7421875, 33176.53515625, 34331.921875, 26017.921875, 0.0, 0.0, 0.0, 193.0, 0.0, 1.0, 1.0, 0.0, 0.0, 1.0, 1.0, 256.0, 1.0, 1.608194748776792E9, 2020-12-17 14:30:48.776
14.0, 40081.63671875, 39213.2734375, 28013.10546875, 29455.775390625, 28654.287109375, 32741.416015625, 33954.578125, 25605.80078125, 0.0, 0.0, 0.0, 193.0, 0.0, 1.0, 1.0, 0.0, 0.0, 1.0, 1.0, 256.0, 1.0, 1.608194748776794E9, 2020-12-17 14:30:48.776
15.0, 39750.40625, 38828.7578125, 27640.634765625, 29078.74609375, 28370.53125, 32394.001953125, 33631.83984375, 25248.841796875, 0.0, 0.0, 0.0, 193.0, 0.0, 1.0, 1.0, 0.0, 0.0, 1.0, 1.0, 256.0, 1.0, 1.608194748836371E9, 2020-12-17 14:30:48.836
16.0, 39826.2265625, 38936.9375, 27746.158203125, 29171.73046875, 28464.408203125, 32486.94140625, 33707.90625, 25329.509765625, 0.0, 0.0, 0.0, 193.0, 0.0, 1.0, 1.0, 0.0, 0.0, 1.0, 1.0, 256.0, 1.0, 1.608194748836378E9, 2020-12-17 14:30:48.836
17.0, 40291.5, 39489.94140625, 28286.310546875, 29711.546875, 28883.212890625, 32994.546875, 34174.609375, 25845.791015625, 0.0, 0.0, 0.0, 193.0, 0.0, 1.0, 1.0, 0.0, 0.0, 1.0, 1.0, 256.0, 1.0, 1.608194748836381E9, 2020-12-17 14:30:48.836
18.0, 40462.625, 39659.52734375, 28446.728515625, 29884.59375, 29000.404296875, 33146.6953125, 34316.5859375, 26007.505859375, 0.0, 0.0, 0.0, 193.0, 0.0, 1.0, 1.0, 0.0, 0.0, 1.0, 1.0, 256.0, 1.0, 1.608194748836383E9, 2020-12-17 14:30:48.836
19.0, 40083.6484375, 39206.8125, 28001.146484375, 29432.84375, 28638.55078125, 32719.890625, 33930.6640625, 25588.611328125, 0.0, 0.0, 0.0, 193.0, 0.0, 1.0, 1.0, 0.0, 0.0, 1.0, 1.0, 256.0, 1.0, 1.608194748836386E9, 2020-12-17 14:30:48.836
20.0, 39747.14453125, 38814.046875, 27622.240234375, 29049.17578125, 28362.328125, 32361.123046875, 33601.84375, 25246.09375, 0.0, 0.0, 0.0, 193.0, 0.0, 1.0, 1.0, 0.0, 0.0, 1.0, 1.0, 256.0, 1.0, 1.608194748836388E9, 2020-12-17 14:30:48.836
21.0, 39825.0625, 38922.65625, 27729.974609375, 29147.2109375, 28462.666015625, 32455.71484375, 33681.12890625, 25331.07421875, 0.0, 0.0, 0.0, 193.0, 0.0, 1.0, 1.0, 0.0, 0.0, 1.0, 1.0, 256.0, 1.0, 1.608194748836391E9, 2020-12-17 14:30:48.836
22.0, 40296.75, 39478.07421875, 28273.927734375, 29696.19140625, 28880.8671875, 32975.7734375, 34154.42578125, 25811.48046875, 0.0, 0.0, 0.0, 193.0, 0.0, 1.0, 1.0, 0.0, 0.0, 1.0, 1.0, 256.0, 1.0, 1.608194748836393E9, 2020-12-17 14:30:48.836
23.0, 40471.453125, 39663.68359375, 28452.62890625, 29887.09765625, 28999.173828125, 33150.23046875, 34318.734375, 25989.244140625, 0.0, 0.0, 0.0, 193.0, 0.0, 1.0, 1.0, 0.0, 0.0, 1.0, 1.0, 256.0, 1.0, 1.608194748836396E9, 2020-12-17 14:30:48.836
24.0, 40094.84765625, 39217.23046875, 28015.33984375, 29452.580078125, 28651.783203125, 32730.57421875, 33937.74609375, 25588.365234375, 0.0, 0.0, 0.0, 193.0, 0.0, 1.0, 1.0, 0.0, 0.0, 1.0, 1.0, 256.0, 1.0, 1.608194748836398E9, 2020-12-17 14:30:48.836
25.0, 39758.41015625, 38834.76953125, 27648.794921875, 29078.322265625, 28376.275390625, 32386.357421875, 33624.8671875, 25244.775390625, 0.0, 0.0, 0.0, 193.0, 0.0, 1.0, 1.0, 0.0, 0.0, 1.0, 1.0, 256.0, 1.0, 1.6081947488364E9, 2020-12-17 14:30:48.836
26.0, 39828.86328125, 38925.984375, 27742.24609375, 29163.99609375, 28471.115234375, 32480.97265625, 33702.875, 25319.18359375, 0.0, 0.0, 0.0, 193.0, 0.0, 1.0, 1.0, 0.0, 0.0, 1.0, 1.0, 256.0, 1.0, 1.608194748836403E9, 2020-12-17 14:30:48.836
27.0, 40294.515625, 39470.7421875, 28277.90625, 29708.283203125, 28888.845703125, 33001.27734375, 34167.09765625, 25810.51953125, 0.0, 0.0, 0.0, 193.0, 0.0, 1.0, 1.0, 0.0, 0.0, 1.0, 1.0, 256.0, 1.0, 1.608194748836405E9, 2020-12-17 14:30:48.836
28.0, 40461.68359375, 39663.21484375, 28455.400390625, 29890.830078125, 29005.455078125, 33157.0234375, 34325.6640625, 25981.48828125, 0.0, 0.0, 0.0, 193.0, 0.0, 1.0, 1.0, 0.0, 0.0, 1.0, 1.0, 256.0, 1.0, 1.608194748836408E9, 2020-12-17 14:30:48.836
29.0, 40104.16796875, 39221.9453125, 28022.806640625, 29463.7109375, 28673.822265625, 32749.373046875, 33955.76171875, 25590.98046875, 0.0, 0.0, 0.0, 193.0, 0.0, 1.0, 1.0, 0.0, 0.0, 1.0, 1.0, 256.0, 1.0, 1.608194748836417E9, 2020-12-17 14:30:48.836
30.0, 39767.73046875, 38832.5546875, 27646.71484375, 29080.9140625, 28374.041015625, 32399.322265625, 33630.859375, 25235.990234375, 0.0, 0.0, 0.0, 193.0, 0.0, 1.0, 1.0, 0.0, 0.0, 1.0, 1.0, 256.0, 1.0, 1.608194748896546E9, 2020-12-17 14:30:48.896
31.0, 39818.26953125, 38904.08203125, 27720.4765625, 29142.896484375, 28441.85546875, 32459.11328125, 33687.1640625, 25296.2734375, 0.0, 0.0, 0.0, 193.0, 0.0, 1.0, 1.0, 0.0, 0.0, 1.0, 1.0, 256.0, 1.0, 1.608194748896553E9, 2020-12-17 14:30:48.896
32.0, 40295.296875, 39458.203125, 28262.841796875, 29691.02734375, 28878.36328125, 32976.19921875, 34155.453125, 25802.25, 0.0, 0.0, 0.0, 193.0, 0.0, 1.0, 1.0, 0.0, 0.0, 1.0, 1.0, 256.0, 1.0, 1.608194748896555E9, 2020-12-17 14:30:48.896
33.0, 40468.75, 39655.8828125, 28449.322265625, 29889.130859375, 29001.56640625, 33152.46484375, 34323.58203125, 25982.515625, 0.0, 0.0, 0.0, 193.0, 0.0, 1.0, 1.0, 0.0, 0.0, 1.0, 1.0, 256.0, 1.0, 1.608194748896558E9, 2020-12-17 14:30:48.896
34.0, 40090.15625, 39210.1875, 28009.57421875, 29453.00390625, 28648.7890625, 32732.921875, 33935.37890625, 25570.439453125, 0.0, 0.0, 0.0, 193.0, 0.0, 1.0, 1.0, 0.0, 0.0, 1.0, 1.0, 256.0, 1.0, 1.60819474889656E9, 2020-12-17 14:30:48.896
35.0, 39759.59375, 38819.81640625, 27631.986328125, 29074.052734375, 28362.1953125, 32378.265625, 33609.22265625, 25215.248046875, 0.0, 0.0, 0.0, 193.0, 0.0, 1.0, 1.0, 0.0, 0.0, 1.0, 1.0, 256.0, 1.0, 1.608194748896563E9, 2020-12-17 14:30:48.896
36.0, 39813.23828125, 38900.83984375, 27718.263671875, 29156.017578125, 28445.34375, 32458.888671875, 33684.58984375, 25280.626953125, 0.0, 0.0, 0.0, 193.0, 0.0, 1.0, 1.0, 0.0, 0.0, 1.0, 1.0, 256.0, 1.0, 1.608194748896565E9, 2020-12-17 14:30:48.896
37.0, 40287.38671875, 39461.01953125, 28271.111328125, 29709.580078125, 28873.37890625, 32981.5859375, 34164.9296875, 25797.466796875, 0.0, 0.0, 0.0, 193.0, 0.0, 1.0, 1.0, 0.0, 0.0, 1.0, 1.0, 256.0, 1.0, 1.608194748896568E9, 2020-12-17 14:30:48.896
38.0, 40503.50390625, 39675.73046875, 28475.47265625, 29926.1015625, 29030.66796875, 33196.609375, 34353.578125, 26005.626953125, 0.0, 0.0, 0.0, 193.0, 0.0, 1.0, 1.0, 0.0, 0.0, 1.0, 1.0, 256.0, 1.0, 1.60819474889657E9, 2020-12-17 14:30:48.896
39.0, 40126.25390625, 39238.95703125, 28036.91015625, 29468.986328125, 28668.212890625, 32766.158203125, 33963.98828125, 25582.44140625, 0.0, 0.0, 0.0, 193.0, 0.0, 1.0, 1.0, 0.0, 0.0, 1.0, 1.0, 256.0, 1.0, 1.608194748896573E9, 2020-12-17 14:30:48.896
40.0, 39765.96484375, 38832.7109375, 27646.46875, 29072.220703125, 28367.669921875, 32380.814453125, 33626.6328125, 25213.482421875, 0.0, 0.0, 0.0, 193.0, 0.0, 1.0, 1.0, 0.0, 0.0, 1.0, 1.0, 256.0, 1.0, 1.608194748896575E9, 2020-12-17 14:30:48.896
41.0, 39814.6015625, 38899.34375, 27708.830078125, 29146.115234375, 28444.224609375, 32453.2109375, 33668.23046875, 25260.33203125, 0.0, 0.0, 0.0, 193.0, 0.0, 1.0, 1.0, 0.0, 0.0, 1.0, 1.0, 256.0, 1.0, 1.608194748896578E9, 2020-12-17 14:30:48.896
42.0, 40295.09765625, 39457.93359375, 28252.068359375, 29700.4609375, 28882.96875, 32979.640625, 34135.0, 25776.6796875, 0.0, 0.0, 0.0, 193.0, 0.0, 1.0, 1.0, 0.0, 0.0, 1.0, 1.0, 256.0, 1.0, 1.60819474889658E9, 2020-12-17 14:30:48.896
43.0, 40508.734375, 39682.75, 28471.115234375, 29935.19921875, 29034.244140625, 33186.75, 34336.81640625, 26000.509765625, 0.0, 0.0, 0.0, 193.0, 0.0, 1.0, 1.0, 0.0, 0.0, 1.0, 1.0, 256.0, 1.0, 1.608194748896583E9, 2020-12-17 14:30:48.896
44.0, 40131.34765625, 39242.7109375, 28042.7890625, 29503.765625, 28671.38671875, 32776.5078125, 33970.828125, 25599.1171875, 0.0, 0.0, 0.0, 193.0, 0.0, 1.0, 1.0, 0.0, 0.0, 1.0, 1.0, 256.0, 1.0, 1.608194748896585E9, 2020-12-17 14:30:48.896
45.0, 39786.171875, 38851.109375, 27648.123046875, 29080.78125, 28375.29296875, 32407.0546875, 33623.52734375, 25220.43359375, 0.0, 0.0, 0.0, 193.0, 0.0, 1.0, 1.0, 0.0, 0.0, 1.0, 1.0, 256.0, 1.0, 1.608194748956907E9, 2020-12-17 14:30:48.956
46.0, 39819.2734375, 38903.14453125, 27718.15234375, 29143.4765625, 28456.2734375, 32481.6875, 33682.265625, 25264.265625, 0.0, 0.0, 0.0, 193.0, 0.0, 1.0, 1.0, 0.0, 0.0, 1.0, 1.0, 256.0, 1.0, 1.608194748956916E9, 2020-12-17 14:30:48.956
47.0, 40274.48828125, 39468.6640625, 28280.744140625, 29708.328125, 28872.841796875, 33002.9765625, 34168.28515625, 25779.583984375, 0.0, 0.0, 0.0, 193.0, 0.0, 1.0, 1.0, 0.0, 0.0, 1.0, 1.0, 256.0, 1.0, 1.608194748956919E9, 2020-12-17 14:30:48.956
48.0, 40484.99609375, 39722.71484375, 28504.173828125, 29915.640625, 29029.193359375, 33210.64453125, 34369.1796875, 26005.94140625, 0.0, 0.0, 0.0, 193.0, 0.0, 1.0, 1.0, 0.0, 0.0, 1.0, 1.0, 256.0, 1.0, 1.608194748956922E9, 2020-12-17 14:30:48.956
49.0, 40119.43359375, 39283.81640625, 28082.595703125, 29493.728515625, 28686.876953125, 32805.2734375, 34000.15234375, 25613.287109375, 0.0, 0.0, 0.0, 193.0, 0.0, 1.0, 1.0, 0.0, 0.0, 1.0, 1.0, 256.0, 1.0, 1.608194748956925E9, 2020-12-17 14:30:48.956
50.0, 39792.71875, 38860.3828125, 27684.9375, 29110.77734375, 28385.685546875, 32423.86328125, 33644.08984375, 25237.376953125, 0.0, 0.0, 0.0, 193.0, 0.0, 1.0, 1.0, 0.0, 0.0, 1.0, 1.0, 256.0, 1.0, 1.608194748956928E9, 2020-12-17 14:30:48.956
51.0, 39861.62890625, 38909.9140625, 27738.044921875, 29176.84765625, 28442.548828125, 32471.025390625, 33686.1796875, 25275.1953125, 0.0, 0.0, 0.0, 193.0, 0.0, 1.0, 1.0, 0.0, 0.0, 1.0, 1.0, 256.0, 1.0, 1.608194748956931E9, 2020-12-17 14:30:48.956
52.0, 40337.03125, 39476.82421875, 28282.265625, 29732.87109375, 28887.392578125, 32997.41015625, 34175.45703125, 25780.703125, 0.0, 0.0, 0.0, 193.0, 0.0, 1.0, 1.0, 0.0, 0.0, 1.0, 1.0, 256.0, 1.0, 1.608194748956942E9, 2020-12-17 14:30:48.956
53.0, 40487.41015625, 39712.8125, 28506.744140625, 29980.728515625, 29043.9453125, 33227.87890625, 34374.41015625, 26002.119140625, 0.0, 0.0, 0.0, 193.0, 0.0, 1.0, 1.0, 0.0, 0.0, 1.0, 1.0, 256.0, 1.0, 1.608194748956945E9, 2020-12-17 14:30:48.956
54.0, 40083.78515625, 39287.34765625, 28075.310546875, 29507.1171875, 28679.8125, 32806.03515625, 33992.1953125, 25602.1796875, 0.0, 0.0, 0.0, 193.0, 0.0, 1.0, 1.0, 0.0, 0.0, 1.0, 1.0, 256.0, 1.0, 1.608194748956947E9, 2020-12-17 14:30:48.956
55.0, 39747.234375, 38894.89453125, 27677.404296875, 29048.52734375, 28360.25, 32398.6953125, 33625.671875, 25204.564453125, 0.0, 0.0, 0.0, 193.0, 0.0, 1.0, 1.0, 0.0, 0.0, 1.0, 1.0, 256.0, 1.0, 1.60819474895695E9, 2020-12-17 14:30:48.956
56.0, 39818.828125, 38923.34765625, 27726.2421875, 29081.71875, 28418.07421875, 32440.158203125, 33656.67578125, 25232.458984375, 0.0, 0.0, 0.0, 193.0, 0.0, 1.0, 1.0, 0.0, 0.0, 1.0, 1.0, 256.0, 1.0, 1.608194748956953E9, 2020-12-17 14:30:48.956
57.0, 40302.4296875, 39477.3125, 28279.8515625, 29655.890625, 28863.701171875, 32973.91796875, 34150.625, 25766.396484375, 0.0, 0.0, 0.0, 193.0, 0.0, 1.0, 1.0, 0.0, 0.0, 1.0, 1.0, 256.0, 1.0, 1.608194748956956E9, 2020-12-17 14:30:48.956
58.0, 40487.09765625, 39744.171875, 28529.384765625, 29925.185546875, 29031.13671875, 33217.57421875, 34373.76171875, 26006.56640625, 0.0, 0.0, 0.0, 193.0, 0.0, 1.0, 1.0, 0.0, 0.0, 1.0, 1.0, 256.0, 1.0, 1.608194748956959E9, 2020-12-17 14:30:48.956
59.0, 40140.69140625, 39330.5546875, 28105.3515625, 29530.7890625, 28681.109375, 32810.48046875, 34009.49609375, 25614.3828125, 0.0, 0.0, 0.0, 193.0, 0.0, 1.0, 1.0, 0.0, 0.0, 1.0, 1.0, 256.0, 1.0, 1.608194748956962E9, 2020-12-17 14:30:48.956
60.0, 39782.28125, 38881.59375, 27689.5859375, 29144.169921875, 28374.890625, 32432.693359375, 33648.515625, 25222.53515625, 0.0, 0.0, 0.0, 193.0, 0.0, 1.0, 1.0, 0.0, 0.0, 1.0, 1.0, 256.0, 1.0, 1.608194749016211E9, 2020-12-17 14:30:49.016
61.0, 39839.48046875, 38925.26953125, 27720.140625, 29339.255859375, 28417.134765625, 32473.015625, 33674.37890625, 25241.935546875, 0.0, 0.0, 0.0, 193.0, 0.0, 1.0, 1.0, 0.0, 0.0, 1.0, 1.0, 256.0, 1.0, 1.608194749016218E9, 2020-12-17 14:30:49.016
62.0, 40335.3984375, 39511.82421875, 28301.083984375, 29881.755859375, 28852.390625, 33017.21484375, 34161.69140625, 25757.0546875, 0.0, 0.0, 0.0, 193.0, 0.0, 1.0, 1.0, 0.0, 0.0, 1.0, 1.0, 256.0, 1.0, 1.608194749016221E9, 2020-12-17 14:30:49.016
63.0, 40634.41796875, 39785.38671875, 28562.890625, 30139.962890625, 29031.361328125, 33228.19140625, 34379.21875, 25998.453125, 0.0, 0.0, 0.0, 193.0, 0.0, 1.0, 1.0, 0.0, 0.0, 1.0, 1.0, 256.0, 1.0, 1.608194749016223E9, 2020-12-17 14:30:49.016
64.0, 40234.32421875, 39358.3125, 28133.849609375, 29564.271484375, 28696.8671875, 32832.56640625, 34032.609375, 25623.123046875, 0.0, 0.0, 0.0, 193.0, 0.0, 1.0, 1.0, 0.0, 0.0, 1.0, 1.0, 256.0, 1.0, 1.608194749016225E9, 2020-12-17 14:30:49.016
65.0, 39797.125, 38918.4296875, 27712.1171875, 29212.142578125, 28387.7421875, 32495.76953125, 33678.625, 25231.318359375, 0.0, 0.0, 0.0, 193.0, 0.0, 1.0, 1.0, 0.0, 0.0, 1.0, 1.0, 256.0, 1.0, 1.608194749016228E9, 2020-12-17 14:30:49.016
66.0, 39813.08203125, 38949.27734375, 27763.14453125, 29095.33203125, 28413.603515625, 32484.99609375, 33682.6484375, 25233.353515625, 0.0, 0.0, 0.0, 193.0, 0.0, 1.0, 1.0, 0.0, 0.0, 1.0, 1.0, 256.0, 1.0, 1.60819474901623E9, 2020-12-17 14:30:49.016
67.0, 40270.53125, 39501.96875, 28301.017578125, 29660.2265625, 28820.650390625, 32942.6015625, 34142.7578125, 25729.71875, 0.0, 0.0, 0.0, 193.0, 0.0, 1.0, 1.0, 0.0, 0.0, 1.0, 1.0, 256.0, 1.0, 1.608194749016232E9, 2020-12-17 14:30:49.016
68.0, 40548.140625, 39755.4609375, 28556.9453125, 30073.578125, 29014.59765625, 33216.32421875, 34378.92578125, 25998.072265625, 0.0, 0.0, 0.0, 193.0, 0.0, 1.0, 1.0, 0.0, 0.0, 1.0, 1.0, 256.0, 1.0, 1.608194749016235E9, 2020-12-17 14:30:49.016
69.0, 40217.55859375, 39314.68359375, 28123.27734375, 29648.3359375, 28661.216796875, 32814.88671875, 34022.21484375, 25605.888671875, 0.0, 0.0, 0.0, 193.0, 0.0, 1.0, 1.0, 0.0, 0.0, 1.0, 1.0, 256.0, 1.0, 1.608194749016237E9, 2020-12-17 14:30:49.016
70.0, 39787.35546875, 38930.32421875, 27708.62890625, 29112.318359375, 28331.751953125, 32411.59375, 33645.20703125, 25212.69921875, 0.0, 0.0, 0.0, 193.0, 0.0, 1.0, 1.0, 0.0, 0.0, 1.0, 1.0, 256.0, 1.0, 1.608194749016239E9, 2020-12-17 14:30:49.016
71.0, 39774.34765625, 38898.24609375, 27671.32421875, 29192.2265625, 28372.54296875, 32451.490234375, 33644.40234375, 25221.529296875, 0.0, 0.0, 0.0, 193.0, 0.0, 1.0, 1.0, 0.0, 0.0, 1.0, 1.0, 256.0, 1.0, 1.608194749016242E9, 2020-12-17 14:30:49.016
72.0, 40220.17578125, 39472.21875, 28264.181640625, 29260.533203125, 28803.8203125, 32954.13671875, 34123.17578125, 25720.642578125, 0.0, 0.0, 0.0, 193.0, 0.0, 1.0, 1.0, 0.0, 0.0, 1.0, 1.0, 256.0, 1.0, 1.608194749016244E9, 2020-12-17 14:30:49.016
73.0, 40467.67578125, 39821.10546875, 28582.537109375, 29516.841796875, 28988.513671875, 33217.5078125, 34386.7265625, 25996.75390625, 0.0, 0.0, 0.0, 193.0, 0.0, 1.0, 1.0, 0.0, 0.0, 1.0, 1.0, 256.0, 1.0, 1.608194749016247E9, 2020-12-17 14:30:49.016
74.0, 40206.25, 39368.3046875, 28134.36328125, 29438.900390625, 28679.25390625, 32862.046875, 34050.22265625, 25641.294921875, 0.0, 0.0, 0.0, 193.0, 0.0, 1.0, 1.0, 0.0, 0.0, 1.0, 1.0, 256.0, 1.0, 1.608194749016249E9, 2020-12-17 14:30:49.016
75.0, 39903.8984375, 38881.55078125, 27715.0, 28854.021484375, 28360.205078125, 32425.18359375, 33683.25, 25247.2109375, 0.0, 0.0, 0.0, 193.0, 0.0, 1.0, 1.0, 0.0, 0.0, 1.0, 1.0, 256.0, 1.0, 1.608194749075996E9, 2020-12-17 14:30:49.075
76.0, 39840.171875, 38896.4609375, 27768.890625, 28477.796875, 28361.703125, 32389.173828125, 33668.609375, 25235.07421875, 0.0, 0.0, 0.0, 193.0, 0.0, 1.0, 1.0, 0.0, 0.0, 1.0, 1.0, 256.0, 1.0, 1.60819474907601E9, 2020-12-17 14:30:49.076
77.0, 40219.59375, 39508.80859375, 28306.806640625, 28947.720703125, 28783.435546875, 32903.1953125, 34140.56640625, 25719.771484375, 0.0, 0.0, 0.0, 193.0, 0.0, 1.0, 1.0, 0.0, 0.0, 1.0, 1.0, 256.0, 1.0, 1.608194749076012E9, 2020-12-17 14:30:49.076
78.0, 40429.02734375, 39774.90625, 28544.205078125, 29288.47265625, 28980.33203125, 33181.453125, 34375.6171875, 25990.62890625, 0.0, 0.0, 0.0, 193.0, 0.0, 1.0, 1.0, 0.0, 0.0, 1.0, 1.0, 256.0, 1.0, 1.608194749076014E9, 2020-12-17 14:30:49.076
79.0, 40207.1640625, 39398.8828125, 28096.72265625, 28750.779296875, 28685.154296875, 32889.47265625, 34019.9140625, 25636.802734375, 0.0, 0.0, 0.0, 193.0, 0.0, 1.0, 1.0, 0.0, 0.0, 1.0, 1.0, 256.0, 1.0, 1.608194749076017E9, 2020-12-17 14:30:49.076
80.0, 39869.3203125, 38899.58984375, 27661.310546875, 27891.154296875, 28363.9375, 32449.009765625, 33707.390625, 25240.326171875, 0.0, 0.0, 0.0, 193.0, 0.0, 1.0, 1.0, 0.0, 0.0, 1.0, 1.0, 256.0, 1.0, 1.608194749076019E9, 2020-12-17 14:30:49.076
81.0, 39768.35546875, 38850.1015625, 27670.587890625, 27853.8046875, 28366.173828125, 32408.12890625, 33671.1796875, 25222.35546875, 0.0, 0.0, 0.0, 193.0, 0.0, 1.0, 1.0, 0.0, 0.0, 1.0, 1.0, 256.0, 1.0, 1.608194749076021E9, 2020-12-17 14:30:49.076
82.0, 40132.51171875, 39417.1875, 28211.365234375, 28287.271484375, 28753.05859375, 32931.5390625, 34098.14453125, 25689.552734375, 0.0, 0.0, 0.0, 193.0, 0.0, 1.0, 1.0, 0.0, 0.0, 1.0, 1.0, 256.0, 1.0, 1.608194749076024E9, 2020-12-17 14:30:49.076
83.0, 40391.79296875, 39700.453125, 28487.185546875, 28336.826171875, 28959.43359375, 33190.4375, 34367.70703125, 25975.609375, 0.0, 0.0, 0.0, 193.0, 0.0, 1.0, 1.0, 0.0, 0.0, 1.0, 1.0, 256.0, 1.0, 1.608194749076026E9, 2020-12-17 14:30:49.076
84.0, 40121.58203125, 39339.94140625, 28064.759765625, 27544.009765625, 28657.998046875, 32817.34375, 34036.20703125, 25631.326171875, 0.0, 0.0, 0.0, 193.0, 0.0, 1.0, 1.0, 0.0, 0.0, 1.0, 1.0, 256.0, 1.0, 1.608194749076028E9, 2020-12-17 14:30:49.076
85.0, 39796.5625, 38886.9140625, 27585.427734375, 26964.697265625, 28325.73828125, 32380.099609375, 33647.734375, 25226.357421875, 0.0, 0.0, 0.0, 193.0, 0.0, 1.0, 1.0, 0.0, 0.0, 1.0, 1.0, 256.0, 1.0, 1.608194749076031E9, 2020-12-17 14:30:49.076
86.0, 39736.796875, 38821.60546875, 27505.7421875, 26893.751953125, 28329.78515625, 32375.740234375, 33630.23046875, 25197.12109375, 0.0, 0.0, 0.0, 193.0, 0.0, 1.0, 1.0, 0.0, 0.0, 1.0, 1.0, 256.0, 1.0, 1.608194749076033E9, 2020-12-17 14:30:49.076
87.0, 40200.2578125, 39412.3359375, 28026.60546875, 27426.841796875, 28740.833984375, 32874.51953125, 34103.796875, 25687.830078125, 0.0, 0.0, 0.0, 193.0, 0.0, 1.0, 1.0, 0.0, 0.0, 1.0, 1.0, 256.0, 1.0, 1.608194749076035E9, 2020-12-17 14:30:49.076
88.0, 40437.8359375, 39737.35546875, 28319.8828125, 27366.201171875, 28945.41796875, 33172.2890625, 34383.10546875, 25996.708984375, 0.0, 0.0, 0.0, 193.0, 0.0, 1.0, 1.0, 0.0, 0.0, 1.0, 1.0, 256.0, 1.0, 1.608194749076038E9, 2020-12-17 14:30:49.076
89.0, 40112.4375, 39293.6484375, 27891.578125, 26719.029296875, 28639.37890625, 32783.59375, 34039.94140625, 25640.109375, 0.0, 0.0, 0.0, 193.0, 0.0, 1.0, 1.0, 0.0, 0.0, 1.0, 1.0, 256.0, 1.0, 1.60819474907604E9, 2020-12-17 14:30:49.076
90.0, 39750.2734375, 38920.0390625, 27391.033203125, 25972.927734375, 28344.15625, 32445.880859375, 33718.96875, 25250.564453125, 0.0, 0.0, 0.0, 193.0, 0.0, 1.0, 1.0, 0.0, 0.0, 1.0, 1.0, 256.0, 1.0, 1.608194749136328E9, 2020-12-17 14:30:49.136
91.0, 39673.25, 38878.64453125, 27335.51171875, 26061.306640625, 28336.04296875, 32358.642578125, 33679.02734375, 25216.58984375, 0.0, 0.0, 0.0, 193.0, 0.0, 1.0, 1.0, 0.0, 0.0, 1.0, 1.0, 256.0, 1.0, 1.608194749136335E9, 2020-12-17 14:30:49.136
92.0, 40111.61328125, 39345.4375, 27838.29296875, 26370.1171875, 28722.482421875, 32867.76953125, 34108.24609375, 25701.48828125, 0.0, 0.0, 0.0, 193.0, 0.0, 1.0, 1.0, 0.0, 0.0, 1.0, 1.0, 256.0, 1.0, 1.608194749136338E9, 2020-12-17 14:30:49.136
93.0, 40389.890625, 39656.6875, 28055.818359375, 26530.15625, 28943.697265625, 33143.703125, 34383.1953125, 26006.791015625, 0.0, 0.0, 0.0, 193.0, 0.0, 1.0, 1.0, 0.0, 0.0, 1.0, 1.0, 256.0, 1.0, 1.60819474913634E9, 2020-12-17 14:30:49.136
94.0, 40037.6953125, 39258.265625, 27575.369140625, 26047.58203125, 28622.234375, 32756.0546875, 34026.08203125, 25644.892578125, 0.0, 0.0, 0.0, 193.0, 0.0, 1.0, 1.0, 0.0, 0.0, 1.0, 1.0, 256.0, 1.0, 1.608194749136342E9, 2020-12-17 14:30:49.136
95.0, 39732.19140625, 38739.83984375, 27162.912109375, 25300.162109375, 28327.794921875, 32375.40625, 33661.2578125, 25232.81640625, 0.0, 0.0, 0.0, 193.0, 0.0, 1.0, 1.0, 0.0, 0.0, 1.0, 1.0, 256.0, 1.0, 1.608194749136345E9, 2020-12-17 14:30:49.136
96.0, 39720.03125, 38724.46484375, 27133.072265625, 25058.71875, 28314.853515625, 32391.611328125, 33681.6875, 25203.177734375, 0.0, 0.0, 0.0, 193.0, 0.0, 1.0, 1.0, 0.0, 0.0, 1.0, 1.0, 256.0, 1.0, 1.608194749136347E9, 2020-12-17 14:30:49.136
97.0, 40154.640625, 39322.5078125, 27603.599609375, 25670.150390625, 28720.984375, 32848.546875, 34113.87890625, 25681.4609375, 0.0, 0.0, 0.0, 193.0, 0.0, 1.0, 1.0, 0.0, 0.0, 1.0, 1.0, 256.0, 1.0, 1.608194749136349E9, 2020-12-17 14:30:49.136
98.0, 40455.828125, 39594.90625, 27861.60546875, 25762.060546875, 28972.0625, 33172.55859375, 34385.609375, 26005.068359375, 0.0, 0.0, 0.0, 193.0, 0.0, 1.0, 1.0, 0.0, 0.0, 1.0, 1.0, 256.0, 1.0, 1.608194749136352E9, 2020-12-17 14:30:49.136
99.0, 40089.37109375, 39250.53515625, 27412.4921875, 25183.240234375, 28648.85546875, 32802.59375, 34095.4609375, 25663.82421875, 0.0, 0.0, 0.0, 193.0, 0.0, 1.0, 1.0, 0.0, 0.0, 1.0, 1.0, 256.0, 1.0, 1.608194749136361E9, 2020-12-17 14:30:49.136
100.0, 39656.1953125, 38825.78515625, 26794.80078125, 24732.337890625, 28312.57421875, 32364.1171875, 33693.53125, 25241.9140625, 0.0, 0.0, 0.0, 193.0, 0.0, 1.0, 1.0, 0.0, 0.0, 1.0, 1.0, 256.0, 1.0, 1.608194749136363E9, 2020-12-17 14:30:49.136
101.0, 39621.796875, 38673.34375, 26741.15625, 24562.353515625, 28286.935546875, 32405.513671875, 33672.34375, 25185.7890625, 0.0, 0.0, 0.0, 193.0, 0.0, 1.0, 1.0, 0.0, 0.0, 1.0, 1.0, 256.0, 1.0, 1.608194749136365E9, 2020-12-17 14:30:49.136
102.0, 40079.46875, 39087.92578125, 27213.091796875, 24915.109375, 28703.662109375, 32833.7265625, 34120.67578125, 25666.640625, 0.0, 0.0, 0.0, 193.0, 0.0, 1.0, 1.0, 0.0, 0.0, 1.0, 1.0, 256.0, 1.0, 1.608194749136368E9, 2020-12-17 14:30:49.136
103.0, 40363.359375, 39474.2734375, 27454.021484375, 24969.892578125, 28939.607421875, 33129.59765625, 34364.0390625, 25996.6640625, 0.0, 0.0, 0.0, 193.0, 0.0, 1.0, 1.0, 0.0, 0.0, 1.0, 1.0, 256.0, 1.0, 1.60819474913637E9, 2020-12-17 14:30:49.136
104.0, 40037.91796875, 39130.81640625, 26954.16796875, 24636.046875, 28628.515625, 32800.58203125, 34039.42578125, 25652.73828125, 0.0, 0.0, 0.0, 193.0, 0.0, 1.0, 1.0, 0.0, 0.0, 1.0, 1.0, 256.0, 1.0, 1.608194749136372E9, 2020-12-17 14:30:49.136
105.0, 39675.73046875, 38790.421875, 26441.353515625, 24211.69921875, 28288.478515625, 32359.53515625, 33664.23046875, 25237.64453125, 0.0, 0.0, 0.0, 193.0, 0.0, 1.0, 1.0, 0.0, 0.0, 1.0, 1.0, 256.0, 1.0, 1.608194749196653E9, 2020-12-17 14:30:49.196
106.0, 39680.8046875, 38731.7265625, 26391.306640625, 23942.427734375, 28295.384765625, 32314.4296875, 33629.42578125, 25189.767578125, 0.0, 0.0, 0.0, 193.0, 0.0, 1.0, 1.0, 0.0, 0.0, 1.0, 1.0, 256.0, 1.0, 1.608194749196659E9, 2020-12-17 14:30:49.196
107.0, 40139.84375, 39158.53515625, 26913.712890625, 24338.142578125, 28700.3984375, 32822.6171875, 34083.14453125, 25660.5390625, 0.0, 0.0, 0.0, 193.0, 0.0, 1.0, 1.0, 0.0, 0.0, 1.0, 1.0, 256.0, 1.0, 1.608194749196661E9, 2020-12-17 14:30:49.196
108.0, 40402.1171875, 39533.328125, 27156.451171875, 24622.546875, 28935.78515625, 33148.6875, 34398.37109375, 25996.3515625, 0.0, 0.0, 0.0, 193.0, 0.0, 1.0, 1.0, 0.0, 0.0, 1.0, 1.0, 256.0, 1.0, 1.608194749196663E9, 2020-12-17 14:30:49.196
109.0, 40045.36328125, 39143.51171875, 26680.404296875, 24204.814453125, 28632.44921875, 32799.84375, 34108.60546875, 25682.98046875, 0.0, 0.0, 0.0, 193.0, 0.0, 1.0, 1.0, 0.0, 0.0, 1.0, 1.0, 256.0, 1.0, 1.608194749196666E9, 2020-12-17 14:30:49.196
110.0, 39691.2421875, 38683.625, 26164.369140625, 23489.068359375, 28294.759765625, 32379.517578125, 33757.50390625, 25278.548828125, 0.0, 0.0, 0.0, 193.0, 0.0, 1.0, 1.0, 0.0, 0.0, 1.0, 1.0, 256.0, 1.0, 1.608194749196668E9, 2020-12-17 14:30:49.196
111.0, 39614.98046875, 38560.98046875, 25980.326171875, 23355.203125, 28268.943359375, 32313.9375, 33677.88671875, 25197.478515625, 0.0, 0.0, 0.0, 193.0, 0.0, 1.0, 1.0, 0.0, 0.0, 1.0, 1.0, 256.0, 1.0, 1.60819474919667E9, 2020-12-17 14:30:49.196
112.0, 40002.89453125, 38972.3203125, 26298.458984375, 23921.283203125, 28669.888671875, 32773.55859375, 34036.09375, 25641.673828125, 0.0, 0.0, 0.0, 193.0, 0.0, 1.0, 1.0, 0.0, 0.0, 1.0, 1.0, 256.0, 1.0, 1.608194749196673E9, 2020-12-17 14:30:49.196
113.0, 40373.59765625, 39414.9765625, 26646.5859375, 24071.0625, 28903.107421875, 33072.15234375, 34358.98828125, 25987.009765625, 0.0, 0.0, 0.0, 193.0, 0.0, 1.0, 1.0, 0.0, 0.0, 1.0, 1.0, 256.0, 1.0, 1.608194749196675E9, 2020-12-17 14:30:49.196
114.0, 40163.89453125, 39074.51171875, 26304.828125, 23656.974609375, 28630.080078125, 32773.0, 34073.46875, 25675.58203125, 0.0, 0.0, 0.0, 193.0, 0.0, 1.0, 1.0, 0.0, 0.0, 1.0, 1.0, 256.0, 1.0, 1.608194749196677E9, 2020-12-17 14:30:49.196
115.0, 39745.625, 38638.921875, 25782.04296875, 23057.142578125, 28332.130859375, 32429.5859375, 33741.36328125, 25281.69921875, 0.0, 0.0, 0.0, 193.0, 0.0, 1.0, 1.0, 0.0, 0.0, 1.0, 1.0, 256.0, 1.0, 1.60819474919668E9, 2020-12-17 14:30:49.196
116.0, 39661.3828125, 38558.8125, 25645.787109375, 23069.32421875, 28315.2109375, 32399.791015625, 33678.734375, 25204.876953125, 0.0, 0.0, 0.0, 193.0, 0.0, 1.0, 1.0, 0.0, 0.0, 1.0, 1.0, 256.0, 1.0, 1.608194749196682E9, 2020-12-17 14:30:49.196
117.0, 40095.5859375, 39018.9921875, 26093.828125, 23403.4609375, 28672.66015625, 32825.61328125, 34086.4296875, 25649.162109375, 0.0, 0.0, 0.0, 193.0, 0.0, 1.0, 1.0, 0.0, 0.0, 1.0, 1.0, 256.0, 1.0, 1.608194749196684E9, 2020-12-17 14:30:49.196
118.0, 40404.46484375, 39374.80859375, 26266.0703125, 23559.029296875, 28915.17578125, 33116.3203125, 34349.421875, 25974.291015625, 0.0, 0.0, 0.0, 193.0, 0.0, 1.0, 1.0, 0.0, 0.0, 1.0, 1.0, 256.0, 1.0, 1.608194749196687E9, 2020-12-17 14:30:49.196
119.0, 40093.84375, 39027.39453125, 25824.400390625, 23174.802734375, 28632.271484375, 32806.14453125, 34050.53515625, 25668.072265625, 0.0, 0.0, 0.0, 193.0, 0.0, 1.0, 1.0, 0.0, 0.0, 1.0, 1.0, 256.0, 1.0, 1.608194749196689E9, 2020-12-17 14:30:49.196
120.0, 39749.89453125, 38517.328125, 25364.892578125, 22629.21875, 28305.890625, 32423.4609375, 33714.25390625, 25271.73046875, 0.0, 0.0, 0.0, 193.0, 0.0, 1.0, 1.0, 0.0, 0.0, 1.0, 1.0, 256.0, 1.0, 1.608194749256806E9, 2020-12-17 14:30:49.256
121.0, 39669.515625, 38444.39453125, 25246.361328125, 22533.462890625, 28273.927734375, 32358.1953125, 33663.0234375, 25192.314453125, 0.0, 0.0, 0.0, 193.0, 0.0, 1.0, 1.0, 0.0, 0.0, 1.0, 1.0, 256.0, 1.0, 1.608194749256817E9, 2020-12-17 14:30:49.256
122.0, 40137.31640625, 39000.6171875, 25784.033203125, 22950.568359375, 28670.939453125, 32804.84765625, 34072.171875, 25653.96875, 0.0, 0.0, 0.0, 193.0, 0.0, 1.0, 1.0, 0.0, 0.0, 1.0, 1.0, 256.0, 1.0, 1.608194749256835E9, 2020-12-17 14:30:49.256
123.0, 40449.390625, 39364.4609375, 26159.18359375, 23262.0625, 28929.03515625, 33198.9765625, 34416.1875, 26007.70703125, 0.0, 0.0, 0.0, 193.0, 0.0, 1.0, 1.0, 0.0, 0.0, 1.0, 1.0, 256.0, 1.0, 1.608194749256838E9, 2020-12-17 14:30:49.256
124.0, 40150.125, 38972.546875, 25676.005859375, 22771.46484375, 28644.408203125, 32869.08984375, 34118.9765625, 25693.732421875, 0.0, 0.0, 0.0, 193.0, 0.0, 1.0, 1.0, 0.0, 0.0, 1.0, 1.0, 256.0, 1.0, 1.608194749256841E9, 2020-12-17 14:30:49.256
125.0, 39741.265625, 38574.50390625, 25134.044921875, 22042.59765625, 28283.11328125, 32395.74609375, 33693.28515625, 25265.673828125, 0.0, 0.0, 0.0, 193.0, 0.0, 1.0, 1.0, 0.0, 0.0, 1.0, 1.0, 256.0, 1.0, 1.608194749256845E9, 2020-12-17 14:30:49.256
126.0, 39661.78515625, 38503.875, 25124.41015625, 21870.935546875, 28233.1796875, 32288.12109375, 33607.76953125, 25174.076171875, 0.0, 0.0, 0.0, 193.0, 0.0, 1.0, 1.0, 0.0, 0.0, 1.0, 1.0, 256.0, 1.0, 1.608194749256848E9, 2020-12-17 14:30:49.256
127.0, 40153.92578125, 39045.234375, 25607.119140625, 22459.14453125, 28667.943359375, 32774.98828125, 34040.4296875, 25635.103515625, 0.0, 0.0, 0.0, 193.0, 0.0, 1.0, 1.0, 0.0, 0.0, 1.0, 1.0, 256.0, 1.0, 1.608194749256852E9, 2020-12-17 14:30:49.256
128.0, 40489.84765625, 39432.09765625, 25934.37109375, 22839.66015625, 28945.240234375, 33183.265625, 34397.1640625, 26002.23046875, 0.0, 0.0, 0.0, 193.0, 0.0, 1.0, 1.0, 0.0, 0.0, 1.0, 1.0, 256.0, 1.0, 1.608194749256855E9, 2020-12-17 14:30:49.256
129.0, 40175.0234375, 39081.82421875, 25593.484375, 22356.66015625, 28633.5, 32869.35546875, 34119.109375, 25709.244140625, 0.0, 0.0, 0.0, 193.0, 0.0, 1.0, 1.0, 0.0, 0.0, 1.0, 1.0, 256.0, 1.0, 1.608194749256858E9, 2020-12-17 14:30:49.256
130.0, 39781.3203125, 38632.46484375, 25120.990234375, 21642.43359375, 28302.359375, 32443.2421875, 33708.9765625, 25285.611328125, 0.0, 0.0, 0.0, 193.0, 0.0, 1.0, 1.0, 0.0, 0.0, 1.0, 1.0, 256.0, 1.0, 1.608194749256861E9, 2020-12-17 14:30:49.256
131.0, 39714.82421875, 38498.15234375, 24976.486328125, 21402.599609375, 28267.958984375, 32414.140625, 33607.390625, 25181.720703125, 0.0, 0.0, 0.0, 193.0, 0.0, 1.0, 1.0, 0.0, 0.0, 1.0, 1.0, 256.0, 1.0, 1.608194749256865E9, 2020-12-17 14:30:49.256
132.0, 40094.87109375, 38961.4140625, 25450.34375, 21877.103515625, 28642.619140625, 32857.01953125, 34040.9453125, 25631.83984375, 0.0, 0.0, 0.0, 193.0, 0.0, 1.0, 1.0, 0.0, 0.0, 1.0, 1.0, 256.0, 1.0, 1.608194749256868E9, 2020-12-17 14:30:49.256
133.0, 40417.71875, 39387.59375, 25828.736328125, 22357.599609375, 28910.28125, 33191.22265625, 34384.8046875, 25995.390625, 0.0, 0.0, 0.0, 193.0, 0.0, 1.0, 1.0, 0.0, 0.0, 1.0, 1.0, 256.0, 1.0, 1.608194749256872E9, 2020-12-17 14:30:49.256
134.0, 40157.546875, 39136.18359375, 25565.8359375, 22088.685546875, 28640.697265625, 32885.91796875, 34103.59765625, 25710.830078125, 0.0, 0.0, 0.0, 193.0, 0.0, 1.0, 1.0, 0.0, 0.0, 1.0, 1.0, 256.0, 1.0, 1.608194749256875E9, 2020-12-17 14:30:49.256
135.0, 39809.91015625, 38691.3359375, 25179.015625, 21411.361328125, 28318.98828125, 32513.830078125, 33756.296875, 25307.560546875, 0.0, 0.0, 0.0, 193.0, 0.0, 1.0, 1.0, 0.0, 0.0, 1.0, 1.0, 256.0, 1.0, 1.608194749316252E9, 2020-12-17 14:30:49.316
136.0, 39735.85546875, 38504.296875, 24976.0390625, 21275.75390625, 28265.388671875, 32360.765625, 33640.2890625, 25190.884765625, 0.0, 0.0, 0.0, 193.0, 0.0, 1.0, 1.0, 0.0, 0.0, 1.0, 1.0, 256.0, 1.0, 1.608194749316258E9, 2020-12-17 14:30:49.316
137.0, 40140.109375, 39003.1875, 25497.125, 21912.95703125, 28648.251953125, 32800.0234375, 34034.91015625, 25615.857421875, 0.0, 0.0, 0.0, 193.0, 0.0, 1.0, 1.0, 0.0, 0.0, 1.0, 1.0, 256.0, 1.0, 1.60819474931626E9, 2020-12-17 14:30:49.316
138.0, 40442.05859375, 39382.83203125, 25890.6953125, 22134.685546875, 28915.400390625, 33238.44921875, 34373.875, 25988.216796875, 0.0, 0.0, 0.0, 193.0, 0.0, 1.0, 1.0, 0.0, 0.0, 1.0, 1.0, 256.0, 1.0, 1.608194749316262E9, 2020-12-17 14:30:49.316
139.0, 40170.30859375, 38983.67578125, 25611.119140625, 21642.701171875, 28649.771484375, 32985.2734375, 34101.02734375, 25711.14453125, 0.0, 0.0, 0.0, 193.0, 0.0, 1.0, 1.0, 0.0, 0.0, 1.0, 1.0, 256.0, 1.0, 1.608194749316265E9, 2020-12-17 14:30:49.316
140.0, 39797.03515625, 38540.12890625, 25184.134765625, 21045.373046875, 28303.431640625, 32605.78515625, 33715.83984375, 25294.552734375, 0.0, 0.0, 0.0, 193.0, 0.0, 1.0, 1.0, 0.0, 0.0, 1.0, 1.0, 256.0, 1.0, 1.608194749316267E9, 2020-12-17 14:30:49.316
141.0, 39733.64453125, 38403.671875, 25050.404296875, 20925.6796875, 28256.046875, 32463.60546875, 33626.38671875, 25184.693359375, 0.0, 0.0, 0.0, 193.0, 0.0, 1.0, 1.0, 0.0, 0.0, 1.0, 1.0, 256.0, 1.0, 1.608194749316269E9, 2020-12-17 14:30:49.316
142.0, 40143.8671875, 38863.421875, 25549.541015625, 21571.958984375, 28624.759765625, 32840.94921875, 34054.9140625, 25614.607421875, 0.0, 0.0, 0.0, 193.0, 0.0, 1.0, 1.0, 0.0, 0.0, 1.0, 1.0, 256.0, 1.0, 1.608194749316271E9, 2020-12-17 14:30:49.316
143.0, 40515.375, 39316.671875, 26032.248046875, 22034.7734375, 28949.955078125, 33227.05078125, 34417.484375, 26002.6328125, 0.0, 0.0, 0.0, 193.0, 0.0, 1.0, 1.0, 0.0, 0.0, 1.0, 1.0, 256.0, 1.0, 1.608194749316273E9, 2020-12-17 14:30:49.316
144.0, 40252.203125, 38998.94140625, 25799.455078125, 21827.998046875, 28684.349609375, 32857.28515625, 34135.31640625, 25725.0234375, 0.0, 0.0, 0.0, 193.0, 0.0, 1.0, 1.0, 0.0, 0.0, 1.0, 1.0, 256.0, 1.0, 1.608194749316276E9, 2020-12-17 14:30:49.316
145.0, 39783.4453125, 38570.7734375, 25303.08984375, 21434.49609375, 28308.349609375, 32433.498046875, 33737.85546875, 25305.302734375, 0.0, 0.0, 0.0, 193.0, 0.0, 1.0, 1.0, 0.0, 0.0, 1.0, 1.0, 256.0, 1.0, 1.608194749316285E9, 2020-12-17 14:30:49.316
146.0, 39721.375, 38419.44921875, 25160.486328125, 21106.439453125, 28271.2890625, 32378.53515625, 33647.77734375, 25197.478515625, 0.0, 0.0, 0.0, 193.0, 0.0, 1.0, 1.0, 0.0, 0.0, 1.0, 1.0, 256.0, 1.0, 1.608194749316288E9, 2020-12-17 14:30:49.316
147.0, 40194.26953125, 38831.70703125, 25687.048828125, 21406.2421875, 28654.533203125, 32935.25, 34050.82421875, 25622.921875, 0.0, 0.0, 0.0, 193.0, 0.0, 1.0, 1.0, 0.0, 0.0, 1.0, 1.0, 256.0, 1.0, 1.60819474931629E9, 2020-12-17 14:30:49.316
148.0, 40547.5390625, 39216.3359375, 26001.224609375, 21955.537109375, 28907.845703125, 33253.24609375, 34344.9296875, 25984.169921875, 0.0, 0.0, 0.0, 193.0, 0.0, 1.0, 1.0, 0.0, 0.0, 1.0, 1.0, 256.0, 1.0, 1.608194749316292E9, 2020-12-17 14:30:49.316
149.0, 40292.50390625, 38903.38671875, 25717.3125, 21934.2578125, 28683.412109375, 32958.09375, 34103.39453125, 25728.041015625, 0.0, 0.0, 0.0, 193.0, 0.0, 1.0, 1.0, 0.0, 0.0, 1.0, 1.0, 256.0, 1.0, 1.608194749316294E9, 2020-12-17 14:30:49.316
150.0, 39845.625, 38478.55078125, 25360.53515625, 21539.615234375, 28340.201171875, 32561.328125, 33740.9609375, 25310.466796875, 0.0, 0.0, 0.0, 193.0, 0.0, 1.0, 1.0, 0.0, 0.0, 1.0, 1.0, 256.0, 1.0, 1.608194749375917E9, 2020-12-17 14:30:49.375
151.0, 39659.8828125, 38388.80859375, 25233.12890625, 21282.705078125, 28240.265625, 32427.306640625, 33626.453125, 25188.873046875, 0.0, 0.0, 0.0, 193.0, 0.0, 1.0, 1.0, 0.0, 0.0, 1.0, 1.0, 256.0, 1.0, 1.608194749375925E9, 2020-12-17 14:30:49.375
152.0, 40045.765625, 38910.51953125, 25753.1640625, 21928.3125, 28582.001953125, 32811.7109375, 34058.625, 25614.091796875, 0.0, 0.0, 0.0, 193.0, 0.0, 1.0, 1.0, 0.0, 0.0, 1.0, 1.0, 256.0, 1.0, 1.608194749375929E9, 2020-12-17 14:30:49.375
153.0, 40426.4375, 39348.8359375, 26191.34765625, 22610.64453125, 28900.044921875, 33191.37890625, 34435.6328125, 26021.162109375, 0.0, 0.0, 0.0, 193.0, 0.0, 1.0, 1.0, 0.0, 0.0, 1.0, 1.0, 256.0, 1.0, 1.608194749375933E9, 2020-12-17 14:30:49.375
154.0, 40247.19921875, 39027.21875, 25931.8671875, 22244.74609375, 28686.697265625, 32965.1796875, 34153.64453125, 25777.6171875, 0.0, 0.0, 0.0, 193.0, 0.0, 1.0, 1.0, 0.0, 0.0, 1.0, 1.0, 256.0, 1.0, 1.608194749375937E9, 2020-12-17 14:30:49.375
155.0, 39952.421875, 38538.0703125, 25472.806640625, 21528.373046875, 28375.494140625, 32622.7265625, 33727.86328125, 25341.7578125, 0.0, 0.0, 0.0, 193.0, 0.0, 1.0, 1.0, 0.0, 0.0, 1.0, 1.0, 256.0, 1.0, 1.60819474937594E9, 2020-12-17 14:30:49.375
156.0, 39795.84765625, 38407.0234375, 25351.369140625, 21313.103515625, 28282.509765625, 32529.923828125, 33588.3671875, 25178.2109375, 0.0, 0.0, 0.0, 193.0, 0.0, 1.0, 1.0, 0.0, 0.0, 1.0, 1.0, 256.0, 1.0, 1.608194749375944E9, 2020-12-17 14:30:49.375
157.0, 40184.546875, 38903.94921875, 25843.466796875, 21770.46484375, 28636.853515625, 32979.57421875, 33994.05078125, 25602.849609375, 0.0, 0.0, 0.0, 193.0, 0.0, 1.0, 1.0, 0.0, 0.0, 1.0, 1.0, 256.0, 1.0, 1.608194749375948E9, 2020-12-17 14:30:49.375
158.0, 40529.2109375, 39399.6640625, 26401.6328125, 22481.40625, 28900.826171875, 33293.7734375, 34397.0078125, 26016.244140625, 0.0, 0.0, 0.0, 193.0, 0.0, 1.0, 1.0, 0.0, 0.0, 1.0, 1.0, 256.0, 1.0, 1.608194749375952E9, 2020-12-17 14:30:49.375
159.0, 40282.40234375, 39082.2265625, 26075.185546875, 22307.017578125, 28671.54296875, 33019.91796875, 34216.0703125, 25780.5234375, 0.0, 0.0, 0.0, 193.0, 0.0, 1.0, 1.0, 0.0, 0.0, 1.0, 1.0, 256.0, 1.0, 1.608194749375955E9, 2020-12-17 14:30:49.375
160.0, 39902.98046875, 38626.80859375, 25565.90234375, 22113.541015625, 28336.154296875, 32515.439453125, 33781.0859375, 25338.0703125, 0.0, 0.0, 0.0, 193.0, 0.0, 1.0, 1.0, 0.0, 0.0, 1.0, 1.0, 256.0, 1.0, 1.608194749375959E9, 2020-12-17 14:30:49.375
161.0, 39734.0234375, 38521.890625, 25359.796875, 22238.62109375, 28233.0234375, 32333.5625, 33620.1953125, 25186.01171875, 0.0, 0.0, 0.0, 193.0, 0.0, 1.0, 1.0, 0.0, 0.0, 1.0, 1.0, 256.0, 1.0, 1.608194749375962E9, 2020-12-17 14:30:49.375
162.0, 40125.0234375, 39046.4609375, 25847.33203125, 22415.15625, 28597.55859375, 32796.109375, 34027.64453125, 25608.416015625, 0.0, 0.0, 0.0, 193.0, 0.0, 1.0, 1.0, 0.0, 0.0, 1.0, 1.0, 256.0, 1.0, 1.608194749375966E9, 2020-12-17 14:30:49.375
163.0, 40553.9765625, 39469.22265625, 26290.544921875, 22692.072265625, 28923.513671875, 33220.30078125, 34397.8125, 26010.970703125, 0.0, 0.0, 0.0, 193.0, 0.0, 1.0, 1.0, 0.0, 0.0, 1.0, 1.0, 256.0, 1.0, 1.60819474937597E9, 2020-12-17 14:30:49.375
164.0, 40319.90625, 39153.7265625, 26069.509765625, 22351.810546875, 28690.294921875, 32992.6953125, 34177.89453125, 25785.486328125, 0.0, 0.0, 0.0, 193.0, 0.0, 1.0, 1.0, 0.0, 0.0, 1.0, 1.0, 256.0, 1.0, 1.608194749375973E9, 2020-12-17 14:30:49.375
165.0, 39859.39453125, 38707.609375, 25638.791015625, 21974.244140625, 28335.373046875, 32561.88671875, 33773.23828125, 25357.0703125, 0.0, 0.0, 0.0, 193.0, 0.0, 1.0, 1.0, 0.0, 0.0, 1.0, 1.0, 256.0, 1.0, 1.608194749436312E9, 2020-12-17 14:30:49.436
166.0, 39709.75, 38523.54296875, 25472.986328125, 21674.486328125, 28247.708984375, 32448.00390625, 33619.63671875, 25199.556640625, 0.0, 0.0, 0.0, 193.0, 0.0, 1.0, 1.0, 0.0, 0.0, 1.0, 1.0, 256.0, 1.0, 1.608194749436326E9, 2020-12-17 14:30:49.436
167.0, 40150.34765625, 38994.984375, 25956.095703125, 22067.67578125, 28611.283203125, 32887.08203125, 33993.78515625, 25597.462890625, 0.0, 0.0, 0.0, 193.0, 0.0, 1.0, 1.0, 0.0, 0.0, 1.0, 1.0, 256.0, 1.0, 1.608194749436333E9, 2020-12-17 14:30:49.436
168.0, 40558.22265625, 39479.7265625, 26439.654296875, 22557.357421875, 28945.373046875, 33307.62890625, 34397.61328125, 26013.00390625, 0.0, 0.0, 0.0, 193.0, 0.0, 1.0, 1.0, 0.0, 0.0, 1.0, 1.0, 256.0, 1.0, 1.608194749436339E9, 2020-12-17 14:30:49.436
169.0, 40285.015625, 39259.765625, 26217.43359375, 22596.40625, 28709.33984375, 33049.53515625, 34210.19140625, 25798.337890625, 0.0, 0.0, 0.0, 193.0, 0.0, 1.0, 1.0, 0.0, 0.0, 1.0, 1.0, 256.0, 1.0, 1.60819474943636E9, 2020-12-17 14:30:49.436
170.0, 39856.35546875, 38788.72265625, 25759.4453125, 22135.35546875, 28353.8125, 32618.14453125, 33813.984375, 25376.470703125, 0.0, 0.0, 0.0, 193.0, 0.0, 1.0, 1.0, 0.0, 0.0, 1.0, 1.0, 256.0, 1.0, 1.608194749436367E9, 2020-12-17 14:30:49.436
171.0, 39748.015625, 38626.5859375, 25608.861328125, 21798.11328125, 28253.318359375, 32423.57421875, 33645.67578125, 25211.828125, 0.0, 0.0, 0.0, 193.0, 0.0, 1.0, 1.0, 0.0, 0.0, 1.0, 1.0, 256.0, 1.0, 1.608194749436373E9, 2020-12-17 14:30:49.436
172.0, 40231.86328125, 39121.36328125, 26051.203125, 22008.62109375, 28628.26953125, 32865.4453125, 34020.046875, 25599.51953125, 0.0, 0.0, 0.0, 193.0, 0.0, 1.0, 1.0, 0.0, 0.0, 1.0, 1.0, 256.0, 1.0, 1.608194749436379E9, 2020-12-17 14:30:49.436
173.0, 40716.98828125, 39604.25, 26517.19140625, 22385.248046875, 28965.982421875, 33286.86328125, 34403.19921875, 25998.720703125, 0.0, 0.0, 0.0, 193.0, 0.0, 1.0, 1.0, 0.0, 0.0, 1.0, 1.0, 256.0, 1.0, 1.608194749436385E9, 2020-12-17 14:30:49.436
174.0, 40458.9140625, 39371.8359375, 26324.51953125, 22255.138671875, 28734.41796875, 33039.87890625, 34191.37109375, 25785.529296875, 0.0, 0.0, 0.0, 193.0, 0.0, 1.0, 1.0, 0.0, 0.0, 1.0, 1.0, 256.0, 1.0, 1.608194749436391E9, 2020-12-17 14:30:49.436
175.0, 39949.11328125, 38833.94140625, 25830.748046875, 21584.9453125, 28389.083984375, 32638.10546875, 33792.68359375, 25355.103515625, 0.0, 0.0, 0.0, 193.0, 0.0, 1.0, 1.0, 0.0, 0.0, 1.0, 1.0, 256.0, 1.0, 1.608194749436397E9, 2020-12-17 14:30:49.436
176.0, 39719.33984375, 38601.37109375, 25660.583984375, 21945.61328125, 28258.326171875, 32431.619140625, 33643.46484375, 25174.455078125, 0.0, 0.0, 0.0, 193.0, 0.0, 1.0, 1.0, 0.0, 0.0, 1.0, 1.0, 256.0, 1.0, 1.608194749436403E9, 2020-12-17 14:30:49.436
177.0, 40054.234375, 39099.14453125, 26127.490234375, 22568.130859375, 28602.453125, 32808.5390625, 34034.6875, 25581.34765625, 0.0, 0.0, 0.0, 193.0, 0.0, 1.0, 1.0, 0.0, 0.0, 1.0, 1.0, 256.0, 1.0, 1.60819474943641E9, 2020-12-17 14:30:49.436
178.0, 40479.6796875, 39620.27734375, 26602.84375, 22759.41796875, 28952.080078125, 33255.23828125, 34413.7734375, 26016.603515625, 0.0, 0.0, 0.0, 193.0, 0.0, 1.0, 1.0, 0.0, 0.0, 1.0, 1.0, 256.0, 1.0, 1.608194749436416E9, 2020-12-17 14:30:49.436
179.0, 40288.99609375, 39393.8984375, 26346.916015625, 22358.091796875, 28770.94140625, 33056.015625, 34230.15234375, 25815.482421875, 0.0, 0.0, 0.0, 193.0, 0.0, 1.0, 1.0, 0.0, 0.0, 1.0, 1.0, 256.0, 1.0, 1.608194749436422E9, 2020-12-17 14:30:49.436
180.0, 39946.09765625, 38897.46484375, 25873.23828125, 21792.2578125, 28444.337890625, 32658.6015625, 33838.34765625, 25408.099609375, 0.0, 0.0, 0.0, 193.0, 0.0, 1.0, 1.0, 0.0, 0.0, 1.0, 1.0, 256.0, 1.0, 1.608194749496705E9, 2020-12-17 14:30:49.496
181.0, 39778.4609375, 38697.05859375, 25679.60546875, 21454.947265625, 28299.833984375, 32488.013671875, 33689.3984375, 25251.658203125, 0.0, 0.0, 0.0, 193.0, 0.0, 1.0, 1.0, 0.0, 0.0, 1.0, 1.0, 256.0, 1.0, 1.608194749496709E9, 2020-12-17 14:30:49.496
182.0, 40134.96875, 39167.7890625, 26131.177734375, 21919.05859375, 28618.033203125, 32870.453125, 34052.09765625, 25636.17578125, 0.0, 0.0, 0.0, 193.0, 0.0, 1.0, 1.0, 0.0, 0.0, 1.0, 1.0, 256.0, 1.0, 1.608194749496711E9, 2020-12-17 14:30:49.496
183.0, 40501.89453125, 39659.28125, 26642.5859375, 22373.626953125, 28926.375, 33290.6875, 34448.39453125, 26069.21875, 0.0, 0.0, 0.0, 193.0, 0.0, 1.0, 1.0, 0.0, 0.0, 1.0, 1.0, 256.0, 1.0, 1.608194749496712E9, 2020-12-17 14:30:49.496
184.0, 40289.75390625, 39405.453125, 26418.509765625, 22031.0625, 28707.908203125, 33073.0703125, 34270.2734375, 25866.98046875, 0.0, 0.0, 0.0, 193.0, 0.0, 1.0, 1.0, 0.0, 0.0, 1.0, 1.0, 256.0, 1.0, 1.608194749496714E9, 2020-12-17 14:30:49.496
185.0, 39933.26953125, 38920.77734375, 25891.119140625, 21443.099609375, 28345.1171875, 32581.0859375, 33829.20703125, 25408.791015625, 0.0, 0.0, 0.0, 193.0, 0.0, 1.0, 1.0, 0.0, 0.0, 1.0, 1.0, 256.0, 1.0, 1.608194749496715E9, 2020-12-17 14:30:49.496
186.0, 39761.875, 38734.96875, 25691.787109375, 21339.857421875, 28232.0625, 32375.2265625, 33644.6484375, 25224.904296875, 0.0, 0.0, 0.0, 193.0, 0.0, 1.0, 1.0, 0.0, 0.0, 1.0, 1.0, 256.0, 1.0, 1.608194749496716E9, 2020-12-17 14:30:49.496
187.0, 40107.609375, 39197.984375, 26163.185546875, 21813.982421875, 28561.03515625, 32802.1015625, 34007.75390625, 25606.24609375, 0.0, 0.0, 0.0, 193.0, 0.0, 1.0, 1.0, 0.0, 0.0, 1.0, 1.0, 256.0, 1.0, 1.608194749496718E9, 2020-12-17 14:30:49.496
188.0, 40483.8359375, 39654.51953125, 26571.88671875, 22164.748046875, 28872.037109375, 33185.2109375, 34360.3515625, 25996.419921875, 0.0, 0.0, 0.0, 193.0, 0.0, 1.0, 1.0, 0.0, 0.0, 1.0, 1.0, 256.0, 1.0, 1.608194749496719E9, 2020-12-17 14:30:49.496
189.0, 40327.8203125, 39440.72265625, 26364.75390625, 21896.28125, 28694.810546875, 32957.625, 34161.64453125, 25793.041015625, 0.0, 0.0, 0.0, 193.0, 0.0, 1.0, 1.0, 0.0, 0.0, 1.0, 1.0, 256.0, 1.0, 1.608194749496721E9, 2020-12-17 14:30:49.496
190.0, 39929.17578125, 38950.796875, 25920.064453125, 21402.62109375, 28370.353515625, 32551.58203125, 33754.08203125, 25359.193359375, 0.0, 0.0, 0.0, 193.0, 0.0, 1.0, 1.0, 0.0, 0.0, 1.0, 1.0, 256.0, 1.0, 1.608194749496722E9, 2020-12-17 14:30:49.496
191.0, 39754.02734375, 38763.01953125, 25776.43359375, 21183.775390625, 28245.919921875, 32377.595703125, 33615.97265625, 25167.03515625, 0.0, 0.0, 0.0, 193.0, 0.0, 1.0, 1.0, 0.0, 0.0, 1.0, 1.0, 256.0, 1.0, 1.608194749496724E9, 2020-12-17 14:30:49.496
192.0, 40127.48046875, 39223.82421875, 26229.66015625, 21589.03515625, 28590.25, 32793.046875, 33987.59375, 25557.20703125, 0.0, 0.0, 0.0, 193.0, 0.0, 1.0, 1.0, 0.0, 0.0, 1.0, 1.0, 256.0, 1.0, 1.60819474949673E9, 2020-12-17 14:30:49.496
193.0, 40618.37109375, 39694.21484375, 26660.04296875, 22057.86328125, 28943.451171875, 33209.3046875, 34376.46875, 25992.75390625, 0.0, 0.0, 0.0, 193.0, 0.0, 1.0, 1.0, 0.0, 0.0, 1.0, 1.0, 256.0, 1.0, 1.608194749496732E9, 2020-12-17 14:30:49.496
194.0, 40440.0703125, 39459.12109375, 26416.4296875, 21959.91796875, 28760.078125, 33018.30859375, 34201.921875, 25813.626953125, 0.0, 0.0, 0.0, 193.0, 0.0, 1.0, 1.0, 0.0, 0.0, 1.0, 1.0, 256.0, 1.0, 1.608194749496733E9, 2020-12-17 14:30:49.496
195.0, 39891.8515625, 39011.4140625, 25974.783203125, 21439.546875, 28381.05859375, 32570.177734375, 33787.05078125, 25383.33203125, 0.0, 0.0, 0.0, 193.0, 0.0, 1.0, 1.0, 0.0, 0.0, 1.0, 1.0, 256.0, 1.0, 1.608194749556878E9, 2020-12-17 14:30:49.556
196.0, 39698.28515625, 38830.85546875, 25811.369140625, 21240.81640625, 28235.4609375, 32404.91015625, 33631.52734375, 25175.3046875, 0.0, 0.0, 0.0, 193.0, 0.0, 1.0, 1.0, 0.0, 0.0, 1.0, 1.0, 256.0, 1.0, 1.608194749556894E9, 2020-12-17 14:30:49.556
197.0, 40054.28125, 39241.63671875, 26237.125, 21846.19140625, 28564.701171875, 32793.5390625, 33990.3203125, 25542.142578125, 0.0, 0.0, 0.0, 193.0, 0.0, 1.0, 1.0, 0.0, 0.0, 1.0, 1.0, 256.0, 1.0, 1.6081947495569E9, 2020-12-17 14:30:49.556
198.0, 40455.2265625, 39752.10546875, 26686.037109375, 22378.431640625, 28908.380859375, 33192.31640625, 34373.5390625, 25991.703125, 0.0, 0.0, 0.0, 193.0, 0.0, 1.0, 1.0, 0.0, 0.0, 1.0, 1.0, 256.0, 1.0, 1.608194749556906E9, 2020-12-17 14:30:49.556
199.0, 40295.3671875, 39616.72265625, 26551.76953125, 22211.083984375, 28732.40625, 33000.515625, 34233.796875, 25835.150390625, 0.0, 0.0, 0.0, 193.0, 0.0, 1.0, 1.0, 0.0, 0.0, 1.0, 1.0, 256.0, 1.0, 1.608194749556912E9, 2020-12-17 14:30:49.556
200.0, 39901.4375, 39088.68359375, 26110.033203125, 21821.1796875, 28392.615234375, 32587.478515625, 33834.97265625, 25385.166015625, 0.0, 0.0, 0.0, 193.0, 0.0, 1.0, 1.0, 0.0, 0.0, 1.0, 1.0, 256.0, 1.0, 1.608194749556918E9, 2020-12-17 14:30:49.556
201.0, 39739.7890625, 38806.80859375, 25868.96875, 21617.623046875, 28245.607421875, 32395.142578125, 33646.66015625, 25189.119140625, 0.0, 0.0, 0.0, 193.0, 0.0, 1.0, 1.0, 0.0, 0.0, 1.0, 1.0, 256.0, 1.0, 1.608194749556924E9, 2020-12-17 14:30:49.556
202.0, 40092.7265625, 39217.9453125, 26256.705078125, 22010.8125, 28571.5625, 32766.046875, 33956.34375, 25531.078125, 0.0, 0.0, 0.0, 193.0, 0.0, 1.0, 1.0, 0.0, 0.0, 1.0, 1.0, 256.0, 1.0, 1.608194749556931E9, 2020-12-17 14:30:49.556
203.0, 40502.3671875, 39753.046875, 26783.4453125, 22542.60546875, 28935.62890625, 33214.0859375, 34374.76953125, 25980.169921875, 0.0, 0.0, 0.0, 193.0, 0.0, 1.0, 1.0, 0.0, 0.0, 1.0, 1.0, 256.0, 1.0, 1.608194749556937E9, 2020-12-17 14:30:49.556
204.0, 40377.95703125, 39600.4296875, 26632.4375, 22427.359375, 28772.439453125, 33050.83203125, 34252.640625, 25835.240234375, 0.0, 0.0, 0.0, 193.0, 0.0, 1.0, 1.0, 0.0, 0.0, 1.0, 1.0, 256.0, 1.0, 1.608194749556943E9, 2020-12-17 14:30:49.556
205.0, 39988.38671875, 39121.31640625, 26149.439453125, 21995.814453125, 28423.103515625, 32599.302734375, 33833.6328125, 25401.013671875, 0.0, 0.0, 0.0, 193.0, 0.0, 1.0, 1.0, 0.0, 0.0, 1.0, 1.0, 256.0, 1.0, 1.608194749556949E9, 2020-12-17 14:30:49.556
206.0, 39760.04296875, 38936.828125, 25976.435546875, 21840.1796875, 28274.21875, 32425.427734375, 33679.18359375, 25194.080078125, 0.0, 0.0, 0.0, 193.0, 0.0, 1.0, 1.0, 0.0, 0.0, 1.0, 1.0, 256.0, 1.0, 1.608194749556955E9, 2020-12-17 14:30:49.556
207.0, 40132.0859375, 39315.265625, 26366.18359375, 22282.7890625, 28596.41796875, 32754.0, 33975.7890625, 25526.09375, 0.0, 0.0, 0.0, 193.0, 0.0, 1.0, 1.0, 0.0, 0.0, 1.0, 1.0, 256.0, 1.0, 1.608194749556961E9, 2020-12-17 14:30:49.556
208.0, 40576.26171875, 39793.5703125, 26838.498046875, 22805.439453125, 28936.544921875, 33197.92578125, 34353.4453125, 25959.740234375, 0.0, 0.0, 0.0, 193.0, 0.0, 1.0, 1.0, 0.0, 0.0, 1.0, 1.0, 256.0, 1.0, 1.608194749556967E9, 2020-12-17 14:30:49.556
209.0, 40327.08203125, 39641.265625, 26701.1015625, 22738.607421875, 28756.189453125, 33012.87890625, 34236.8125, 25821.962890625, 0.0, 0.0, 0.0, 193.0, 0.0, 1.0, 1.0, 0.0, 0.0, 1.0, 1.0, 256.0, 1.0, 1.608194749556974E9, 2020-12-17 14:30:49.556
210.0, 39884.09375, 39158.578125, 26242.556640625, 22332.140625, 28409.603515625, 32612.37890625, 33835.46484375, 25390.6875, 0.0, 0.0, 0.0, 193.0, 0.0, 1.0, 1.0, 0.0, 0.0, 1.0, 1.0, 256.0, 1.0, 1.60819474961598E9, 2020-12-17 14:30:49.615
211.0, 39709.79296875, 38942.6171875, 26039.736328125, 22161.552734375, 28249.69921875, 32395.923828125, 33640.1328125, 25176.400390625, 0.0, 0.0, 0.0, 193.0, 0.0, 1.0, 1.0, 0.0, 0.0, 1.0, 1.0, 256.0, 1.0, 1.608194749615984E9, 2020-12-17 14:30:49.615
212.0, 40025.40234375, 39331.984375, 26455.61328125, 22624.63671875, 28572.279296875, 32755.787109375, 33975.27734375, 25522.13671875, 0.0, 0.0, 0.0, 193.0, 0.0, 1.0, 1.0, 0.0, 0.0, 1.0, 1.0, 256.0, 1.0, 1.608194749615986E9, 2020-12-17 14:30:49.615
213.0, 40457.640625, 39817.8671875, 26919.12109375, 23161.63671875, 28921.658203125, 33173.40625, 34360.28515625, 25953.302734375, 0.0, 0.0, 0.0, 193.0, 0.0, 1.0, 1.0, 0.0, 0.0, 1.0, 1.0, 256.0, 1.0, 1.608194749615987E9, 2020-12-17 14:30:49.615
