%OpenBCI Raw EEG Data
%Number of channels = 8
%Sample Rate = 250 Hz
%Board = OpenBCI_GUI$BoardCytonSerial
Sample Index, EXG Channel 0, EXG Channel 1, EXG Channel 2, EXG Channel 3, EXG Channel 4, EXG Channel 5, EXG Channel 6, EXG Channel 7, Accel Channel 0, Accel Channel 1, Accel Channel 2, Other, Other, Other, Other, Other, Other, Other, Analog Channel 0, Analog Channel 1, Analog Channel 2, Timestamp, Timestamp (Formatted)
200.0, 40212.55078125, 32090.578125, 28961.9140625, 20837.681640625, 27803.244140625, 33573.83984375, 33717.71875, 26665.919921875, 0.0, 0.0, 0.0, 193.0, 0.0, 1.0, 1.0, 0.0, 0.0, 1.0, 1.0, 256.0, 1.0, 1.60819525769998E9, 2020-12-17 14:39:17.699
201.0, 40162.484375, 32010.8046875, 28882.275390625, 20768.212890625, 27760.486328125, 33504.1015625, 33644.08984375, 26603.671875, 0.0, 0.0, 0.0, 193.0, 0.0, 1.0, 1.0, 0.0, 0.0, 1.0, 1.0, 256.0, 1.0, 1.608195257699983E9, 2020-12-17 14:39:17.699
202.0, 40094.37890625, 31936.41796875, 28810.837890625, 20685.935546875, 27712.02734375, 33420.28125, 33584.25390625, 26529.59765625, 0.0, 0.0, 0.0, 193.0, 0.0, 1.0, 1.0, 0.0, 0.0, 1.0, 1.0, 256.0, 1.0, 1.608195257699986E9, 2020-12-17 14:39:17.699
203.0, 40104.63671875, 31965.18359375, 28846.177734375, 20718.814453125, 27728.544921875, 33456.0, 33633.18359375, 26562.052734375, 0.0, 0.0, 0.0, 193.0, 0.0, 1.0, 1.0, 0.0, 0.0, 1.0, 1.0, 256.0, 1.0, 1.608195257699989E9, 2020-12-17 14:39:17.699
204.0, 40193.33203125, 32069.3203125, 28947.765625, 20832.875, 27792.359375, 33553.20703125, 33711.14453125, 26653.626953125, 0.0, 0.0, 0.0, 193.0, 0.0, 1.0, 1.0, 0.0, 0.0, 1.0, 1.0, 256.0, 1.0, 1.608195257699992E9, 2020-12-17 14:39:17.699
205.0, 40214.36328125, 32079.04296875, 28952.771484375, 20846.0859375, 27796.248046875, 33553.85546875, 33700.6171875, 26659.7734375, 0.0, 0.0, 0.0, 193.0, 0.0, 1.0, 1.0, 0.0, 0.0, 1.0, 1.0, 256.0, 1.0, 1.608195257699995E9, 2020-12-17 14:39:17.699
206.0, 40142.03125, 31989.703125, 28864.3046875, 20736.80859375, 27751.56640625, 33490.17578125, 33637.875, 26595.06640625, 0.0, 0.0, 0.0, 193.0, 0.0, 1.0, 1.0, 0.0, 0.0, 1.0, 1.0, 256.0, 1.0, 1.608195257699998E9, 2020-12-17 14:39:17.699
207.0, 40087.8984375, 31930.986328125, 28806.7265625, 20674.669921875, 27708.541015625, 33402.82421875, 33578.66796875, 26533.0390625, 0.0, 0.0, 0.0, 193.0, 0.0, 1.0, 1.0, 0.0, 0.0, 1.0, 1.0, 256.0, 1.0, 1.608195257700001E9, 2020-12-17 14:39:17.700
208.0, 40127.52734375, 31980.47265625, 28850.0, 20712.802734375, 27748.1484375, 33451.0390625, 33612.4609375, 26559.884765625, 0.0, 0.0, 0.0, 193.0, 0.0, 1.0, 1.0, 0.0, 0.0, 1.0, 1.0, 256.0, 1.0, 1.608195257700004E9, 2020-12-17 14:39:17.700
209.0, 40211.48046875, 32077.880859375, 28945.552734375, 20814.591796875, 27790.28125, 33532.62109375, 33684.76953125, 26644.26171875, 0.0, 0.0, 0.0, 193.0, 0.0, 1.0, 1.0, 0.0, 0.0, 1.0, 1.0, 256.0, 1.0, 1.608195257700007E9, 2020-12-17 14:39:17.700
210.0, 40223.81640625, 32080.318359375, 28952.75, 20841.4140625, 27793.029296875, 33538.65625, 33680.5234375, 26642.67578125, 0.0, 0.0, 0.0, 193.0, 0.0, 1.0, 1.0, 0.0, 0.0, 1.0, 1.0, 256.0, 1.0, 1.60819525770001E9, 2020-12-17 14:39:17.700
211.0, 40163.9140625, 32005.349609375, 28880.173828125, 20757.125, 27766.005859375, 33490.78125, 33641.921875, 26589.478515625, 0.0, 0.0, 0.0, 193.0, 0.0, 1.0, 1.0, 0.0, 0.0, 1.0, 1.0, 256.0, 1.0, 1.608195257700013E9, 2020-12-17 14:39:17.700
212.0, 40095.80859375, 31926.91796875, 28804.9375, 20674.603515625, 27723.806640625, 33427.0546875, 33586.890625, 26525.998046875, 0.0, 0.0, 0.0, 193.0, 0.0, 1.0, 1.0, 0.0, 0.0, 1.0, 1.0, 256.0, 1.0, 1.608195257700016E9, 2020-12-17 14:39:17.700
213.0, 40122.765625, 31957.875, 28837.52734375, 20710.5, 27760.6640625, 33457.07421875, 33608.68359375, 26555.458984375, 0.0, 0.0, 0.0, 193.0, 0.0, 1.0, 1.0, 0.0, 0.0, 1.0, 1.0, 256.0, 1.0, 1.608195257700019E9, 2020-12-17 14:39:17.700
214.0, 40214.3203125, 32059.91015625, 28940.1875, 20817.921875, 27822.4453125, 33552.8515625, 33698.16015625, 26647.81640625, 0.0, 0.0, 0.0, 193.0, 0.0, 1.0, 1.0, 0.0, 0.0, 1.0, 1.0, 256.0, 1.0, 1.608195257700022E9, 2020-12-17 14:39:17.700
215.0, 40217.0234375, 32078.150390625, 28954.359375, 20831.177734375, 27811.693359375, 33562.44140625, 33709.04296875, 26652.93359375, 0.0, 0.0, 0.0, 193.0, 0.0, 1.0, 1.0, 0.0, 0.0, 1.0, 1.0, 256.0, 1.0, 1.608195257700025E9, 2020-12-17 14:39:17.700
216.0, 40145.23046875, 31999.583984375, 28873.625, 20740.71875, 27750.046875, 33486.66796875, 33638.12109375, 26588.919921875, 0.0, 0.0, 0.0, 193.0, 0.0, 1.0, 1.0, 0.0, 0.0, 1.0, 1.0, 256.0, 1.0, 1.608195257700029E9, 2020-12-17 14:39:17.700
0.0, 0.0, 0.0, 0.0, 0.0, 0.0, 0.0, 0.0, 0.0, 0.0, 0.0, 0.0, 193.0, 0.0, 1.0, 1.0, 0.0, 0.0, 1.0, 1.0, 256.0, 1.0, 1.608195257809939E9, 2020-12-17 14:39:17.809
1.0, 40380.0546875, 32320.041015625, 29074.521484375, 21036.90234375, 27818.845703125, 34014.4375, 33862.01953125, 27034.74609375, 0.0, 0.0, 0.0, 193.0, 0.0, 1.0, 1.0, 0.0, 0.0, 1.0, 1.0, 256.0, 1.0, 1.60819525787707E9, 2020-12-17 14:39:17.877
2.0, 40320.17578125, 32249.453125, 29005.052734375, 20969.244140625, 27771.6171875, 33951.25, 33799.2578125, 26969.681640625, 0.0, 0.0, 0.0, 193.0, 0.0, 1.0, 1.0, 0.0, 0.0, 1.0, 1.0, 256.0, 1.0, 1.608195257877072E9, 2020-12-17 14:39:17.877
3.0, 40247.15234375, 32169.03125, 28928.251953125, 20889.447265625, 27721.01171875, 33886.2265625, 33735.91015625, 26896.568359375, 0.0, 0.0, 0.0, 193.0, 0.0, 1.0, 1.0, 0.0, 0.0, 1.0, 1.0, 256.0, 1.0, 1.608195257877074E9, 2020-12-17 14:39:17.877
4.0, 40241.453125, 32168.271484375, 28930.15234375, 20889.134765625, 27716.9453125, 33882.3359375, 33739.80078125, 26898.333984375, 0.0, 0.0, 0.0, 193.0, 0.0, 1.0, 1.0, 0.0, 0.0, 1.0, 1.0, 256.0, 1.0, 1.608195257877075E9, 2020-12-17 14:39:17.877
5.0, 40327.84375, 32267.044921875, 29026.33203125, 20994.724609375, 27789.72265625, 33970.046875, 33815.4375, 26981.6171875, 0.0, 0.0, 0.0, 193.0, 0.0, 1.0, 1.0, 0.0, 0.0, 1.0, 1.0, 256.0, 1.0, 1.608195257877077E9, 2020-12-17 14:39:17.877
6.0, 40374.7578125, 32314.876953125, 29069.76171875, 21044.904296875, 27815.60546875, 34017.05078125, 33850.171875, 27023.482421875, 0.0, 0.0, 0.0, 193.0, 0.0, 1.0, 1.0, 0.0, 0.0, 1.0, 1.0, 256.0, 1.0, 1.608195257877078E9, 2020-12-17 14:39:17.877
7.0, 40319.70703125, 32246.14453125, 29002.572265625, 20974.67578125, 27763.345703125, 33953.41796875, 33797.40234375, 26975.515625, 0.0, 0.0, 0.0, 193.0, 0.0, 1.0, 1.0, 0.0, 0.0, 1.0, 1.0, 256.0, 1.0, 1.608195257877087E9, 2020-12-17 14:39:17.877
8.0, 40249.9453125, 32169.27734375, 28932.611328125, 20903.529296875, 27730.53515625, 33892.41796875, 33748.7421875, 26910.11328125, 0.0, 0.0, 0.0, 193.0, 0.0, 1.0, 1.0, 0.0, 0.0, 1.0, 1.0, 256.0, 1.0, 1.608195257877088E9, 2020-12-17 14:39:17.877
9.0, 40248.76171875, 32176.251953125, 28939.451171875, 20916.068359375, 27739.140625, 33904.30859375, 33753.9921875, 26907.9453125, 0.0, 0.0, 0.0, 193.0, 0.0, 1.0, 1.0, 0.0, 0.0, 1.0, 1.0, 256.0, 1.0, 1.60819525787709E9, 2020-12-17 14:39:17.877
10.0, 40334.14453125, 32269.4140625, 29031.16015625, 21016.025390625, 27792.716796875, 33989.26953125, 33821.96484375, 26983.5390625, 0.0, 0.0, 0.0, 193.0, 0.0, 1.0, 1.0, 0.0, 0.0, 1.0, 1.0, 256.0, 1.0, 1.608195257877091E9, 2020-12-17 14:39:17.877
11.0, 40385.95703125, 32315.390625, 29075.728515625, 21065.982421875, 27828.546875, 34030.59765625, 33859.3828125, 27020.419921875, 0.0, 0.0, 0.0, 193.0, 0.0, 1.0, 1.0, 0.0, 0.0, 1.0, 1.0, 256.0, 1.0, 1.608195257877093E9, 2020-12-17 14:39:17.877
12.0, 40326.4140625, 32251.576171875, 29011.84765625, 20998.63671875, 27785.02734375, 33973.2421875, 33809.359375, 26972.36328125, 0.0, 0.0, 0.0, 193.0, 0.0, 1.0, 1.0, 0.0, 0.0, 1.0, 1.0, 256.0, 1.0, 1.608195257877094E9, 2020-12-17 14:39:17.877
13.0, 40259.15625, 32173.48046875, 28933.83984375, 20917.677734375, 27727.046875, 33902.51953125, 33747.87109375, 26904.66015625, 0.0, 0.0, 0.0, 193.0, 0.0, 1.0, 1.0, 0.0, 0.0, 1.0, 1.0, 256.0, 1.0, 1.608195257877095E9, 2020-12-17 14:39:17.877
14.0, 40243.77734375, 32169.947265625, 28934.556640625, 20919.689453125, 27726.376953125, 33898.72265625, 33755.24609375, 26909.509765625, 0.0, 0.0, 0.0, 193.0, 0.0, 1.0, 1.0, 0.0, 0.0, 1.0, 1.0, 256.0, 1.0, 1.608195257877097E9, 2020-12-17 14:39:17.877
15.0, 40329.4296875, 32264.5859375, 29026.064453125, 21023.357421875, 27794.28125, 33979.4765625, 33826.75, 26986.958984375, 0.0, 0.0, 0.0, 193.0, 0.0, 1.0, 1.0, 0.0, 0.0, 1.0, 1.0, 256.0, 1.0, 1.608195257877098E9, 2020-12-17 14:39:17.877
16.0, 40375.80859375, 32314.67578125, 29072.107421875, 21068.708984375, 27818.869140625, 34018.83984375, 33855.5390625, 27025.314453125, 0.0, 0.0, 0.0, 193.0, 0.0, 1.0, 1.0, 0.0, 0.0, 1.0, 1.0, 256.0, 1.0, 1.608195257937379E9, 2020-12-17 14:39:17.937
17.0, 40323.75390625, 32248.603515625, 29006.52734375, 21000.78125, 27772.66796875, 33956.79296875, 33800.59765625, 26972.296875, 0.0, 0.0, 0.0, 193.0, 0.0, 1.0, 1.0, 0.0, 0.0, 1.0, 1.0, 256.0, 1.0, 1.608195257937395E9, 2020-12-17 14:39:17.937
18.0, 40253.8125, 32168.5625, 28931.806640625, 20920.8515625, 27721.705078125, 33887.43359375, 33746.88671875, 26911.701171875, 0.0, 0.0, 0.0, 193.0, 0.0, 1.0, 1.0, 0.0, 0.0, 1.0, 1.0, 256.0, 1.0, 1.608195257937402E9, 2020-12-17 14:39:17.937
19.0, 40250.19140625, 32170.55078125, 28934.958984375, 20924.451171875, 27722.8671875, 33883.9921875, 33746.73046875, 26910.740234375, 0.0, 0.0, 0.0, 193.0, 0.0, 1.0, 1.0, 0.0, 0.0, 1.0, 1.0, 256.0, 1.0, 1.608195257937409E9, 2020-12-17 14:39:17.937
20.0, 40326.43359375, 32261.03125, 29023.44921875, 21021.390625, 27776.69140625, 33961.41796875, 33814.8125, 26985.6171875, 0.0, 0.0, 0.0, 193.0, 0.0, 1.0, 1.0, 0.0, 0.0, 1.0, 1.0, 256.0, 1.0, 1.608195257937416E9, 2020-12-17 14:39:17.937
21.0, 40376.8828125, 32309.06640625, 29067.28125, 21076.46484375, 27808.2734375, 34010.59375, 33853.19140625, 27029.47265625, 0.0, 0.0, 0.0, 193.0, 0.0, 1.0, 1.0, 0.0, 0.0, 1.0, 1.0, 256.0, 1.0, 1.608195257937423E9, 2020-12-17 14:39:17.937
22.0, 40318.296875, 32245.630859375, 29004.830078125, 21011.890625, 27764.107421875, 33957.9296875, 33805.8515625, 26975.3359375, 0.0, 0.0, 0.0, 193.0, 0.0, 1.0, 1.0, 0.0, 0.0, 1.0, 1.0, 256.0, 1.0, 1.60819525793743E9, 2020-12-17 14:39:17.937
23.0, 40245.3203125, 32162.794921875, 28923.08984375, 20924.763671875, 27707.66796875, 33879.8359375, 33738.52734375, 26899.966796875, 0.0, 0.0, 0.0, 193.0, 0.0, 1.0, 1.0, 0.0, 0.0, 1.0, 1.0, 256.0, 1.0, 1.608195257937437E9, 2020-12-17 14:39:17.937
24.0, 40244.046875, 32164.001953125, 28925.078125, 20927.69140625, 27712.2734375, 33881.82421875, 33735.015625, 26900.412109375, 0.0, 0.0, 0.0, 193.0, 0.0, 1.0, 1.0, 0.0, 0.0, 1.0, 1.0, 256.0, 1.0, 1.608195257937444E9, 2020-12-17 14:39:17.937
25.0, 40334.37109375, 32270.46484375, 29028.767578125, 21038.84765625, 27785.498046875, 33978.4296875, 33817.18359375, 26988.3671875, 0.0, 0.0, 0.0, 193.0, 0.0, 1.0, 1.0, 0.0, 0.0, 1.0, 1.0, 256.0, 1.0, 1.608195257937451E9, 2020-12-17 14:39:17.937
26.0, 40371.49609375, 32317.603515625, 29071.146484375, 21088.2890625, 27810.396484375, 34012.78125, 33855.55859375, 27029.94140625, 0.0, 0.0, 0.0, 193.0, 0.0, 1.0, 1.0, 0.0, 0.0, 1.0, 1.0, 256.0, 1.0, 1.608195257937458E9, 2020-12-17 14:39:17.937
27.0, 40317.65234375, 32246.591796875, 29002.3046875, 21021.0546875, 27762.1171875, 33949.97265625, 33799.9921875, 26974.576171875, 0.0, 0.0, 0.0, 193.0, 0.0, 1.0, 1.0, 0.0, 0.0, 1.0, 1.0, 256.0, 1.0, 1.608195257937466E9, 2020-12-17 14:39:17.937
28.0, 40241.65625, 32159.33203125, 28917.634765625, 20933.458984375, 27705.232421875, 33873.7109375, 33732.37890625, 26901.552734375, 0.0, 0.0, 0.0, 193.0, 0.0, 1.0, 1.0, 0.0, 0.0, 1.0, 1.0, 256.0, 1.0, 1.608195257937473E9, 2020-12-17 14:39:17.937
29.0, 40230.5234375, 32157.296875, 28919.55859375, 20938.978515625, 27717.123046875, 33879.1640625, 33734.2109375, 26902.982421875, 0.0, 0.0, 0.0, 193.0, 0.0, 1.0, 1.0, 0.0, 0.0, 1.0, 1.0, 256.0, 1.0, 1.60819525793748E9, 2020-12-17 14:39:17.937
30.0, 40330.79296875, 32259.33203125, 29019.693359375, 21045.642578125, 27782.525390625, 33970.58203125, 33817.80859375, 26991.697265625, 0.0, 0.0, 0.0, 193.0, 0.0, 1.0, 1.0, 0.0, 0.0, 1.0, 1.0, 256.0, 1.0, 1.608195257937505E9, 2020-12-17 14:39:17.937
31.0, 40372.859375, 32307.947265625, 29067.458984375, 21097.029296875, 27807.24609375, 34012.08984375, 33862.5546875, 27037.7421875, 0.0, 0.0, 0.0, 193.0, 0.0, 1.0, 1.0, 0.0, 0.0, 1.0, 1.0, 256.0, 1.0, 1.608195257996859E9, 2020-12-17 14:39:17.996
32.0, 40314.4765625, 32244.37890625, 29005.43359375, 21029.615234375, 27760.708984375, 33954.48828125, 33811.90625, 26985.169921875, 0.0, 0.0, 0.0, 193.0, 0.0, 1.0, 1.0, 0.0, 0.0, 1.0, 1.0, 256.0, 1.0, 1.608195257996868E9, 2020-12-17 14:39:17.996
33.0, 40239.93359375, 32159.912109375, 28922.6640625, 20943.830078125, 27706.751953125, 33880.55078125, 33739.48828125, 26903.228515625, 0.0, 0.0, 0.0, 193.0, 0.0, 1.0, 1.0, 0.0, 0.0, 1.0, 1.0, 256.0, 1.0, 1.60819525799687E9, 2020-12-17 14:39:17.996
34.0, 40243.84375, 32157.677734375, 28926.419921875, 20954.177734375, 27717.79296875, 33890.33984375, 33739.93359375, 26906.447265625, 0.0, 0.0, 0.0, 193.0, 0.0, 1.0, 1.0, 0.0, 0.0, 1.0, 1.0, 256.0, 1.0, 1.608195257996873E9, 2020-12-17 14:39:17.996
35.0, 40330.94921875, 32265.681640625, 29027.337890625, 21060.326171875, 27786.369140625, 33981.734375, 33819.57421875, 26988.74609375, 0.0, 0.0, 0.0, 193.0, 0.0, 1.0, 1.0, 0.0, 0.0, 1.0, 1.0, 256.0, 1.0, 1.608195257996875E9, 2020-12-17 14:39:17.996
36.0, 40378.71484375, 32314.2734375, 29069.470703125, 21108.40625, 27814.443359375, 34018.59375, 33850.3984375, 27035.171875, 0.0, 0.0, 0.0, 193.0, 0.0, 1.0, 1.0, 0.0, 0.0, 1.0, 1.0, 256.0, 1.0, 1.608195257996878E9, 2020-12-17 14:39:17.996
37.0, 40319.3046875, 32244.267578125, 29003.3984375, 21039.49609375, 27768.734375, 33950.7578125, 33796.796875, 26983.47265625, 0.0, 0.0, 0.0, 193.0, 0.0, 1.0, 1.0, 0.0, 0.0, 1.0, 1.0, 256.0, 1.0, 1.60819525799688E9, 2020-12-17 14:39:17.996
38.0, 40237.49609375, 32158.705078125, 28922.216796875, 20952.591796875, 27709.703125, 33872.75, 33736.06640625, 26901.75390625, 0.0, 0.0, 0.0, 193.0, 0.0, 1.0, 1.0, 0.0, 0.0, 1.0, 1.0, 256.0, 1.0, 1.608195257996883E9, 2020-12-17 14:39:17.996
39.0, 40236.828125, 32153.765625, 28918.41796875, 20955.474609375, 27710.373046875, 33873.26171875, 33733.38671875, 26889.4609375, 0.0, 0.0, 0.0, 193.0, 0.0, 1.0, 1.0, 0.0, 0.0, 1.0, 1.0, 256.0, 1.0, 1.608195257996885E9, 2020-12-17 14:39:17.996
40.0, 40322.0546875, 32250.7265625, 29011.087890625, 21054.693359375, 27770.119140625, 33960.09765625, 33803.63671875, 26965.58984375, 0.0, 0.0, 0.0, 193.0, 0.0, 1.0, 1.0, 0.0, 0.0, 1.0, 1.0, 256.0, 1.0, 1.608195257996888E9, 2020-12-17 14:39:17.996
41.0, 40372.90234375, 32304.751953125, 29061.08984375, 21108.71875, 27804.65234375, 34001.046875, 33839.35546875, 27002.650390625, 0.0, 0.0, 0.0, 193.0, 0.0, 1.0, 1.0, 0.0, 0.0, 1.0, 1.0, 256.0, 1.0, 1.608195257996891E9, 2020-12-17 14:39:17.996
42.0, 40328.58203125, 32247.28515625, 29002.951171875, 21050.4921875, 27770.23046875, 33947.55859375, 33790.09375, 26952.91796875, 0.0, 0.0, 0.0, 193.0, 0.0, 1.0, 1.0, 0.0, 0.0, 1.0, 1.0, 256.0, 1.0, 1.608195257996894E9, 2020-12-17 14:39:17.996
43.0, 40256.02734375, 32164.8515625, 28925.525390625, 20973.625, 27731.763671875, 33884.99609375, 33729.62890625, 26884.767578125, 0.0, 0.0, 0.0, 193.0, 0.0, 1.0, 1.0, 0.0, 0.0, 1.0, 1.0, 256.0, 1.0, 1.608195257996898E9, 2020-12-17 14:39:17.996
44.0, 40260.16015625, 32168.47265625, 28932.947265625, 20987.75, 27751.052734375, 33904.98046875, 33745.23046875, 26890.154296875, 0.0, 0.0, 0.0, 193.0, 0.0, 1.0, 1.0, 0.0, 0.0, 1.0, 1.0, 256.0, 1.0, 1.6081952579969E9, 2020-12-17 14:39:17.996
45.0, 40353.03515625, 32281.908203125, 29046.11328125, 21107.533203125, 27828.30078125, 34015.01953125, 33845.7265625, 26988.568359375, 0.0, 0.0, 0.0, 193.0, 0.0, 1.0, 1.0, 0.0, 0.0, 1.0, 1.0, 256.0, 1.0, 1.608195257996904E9, 2020-12-17 14:39:17.996
46.0, 40403.1015625, 32338.345703125, 29102.908203125, 21168.419921875, 27860.77734375, 34074.2734375, 33901.875, 27060.294921875, 0.0, 0.0, 0.0, 193.0, 0.0, 1.0, 1.0, 0.0, 0.0, 1.0, 1.0, 256.0, 1.0, 1.608195258057361E9, 2020-12-17 14:39:18.057
47.0, 40329.875, 32263.04296875, 29030.646484375, 21089.02734375, 27787.0390625, 34010.4140625, 33854.375, 27029.091796875, 0.0, 0.0, 0.0, 193.0, 0.0, 1.0, 1.0, 0.0, 0.0, 1.0, 1.0, 256.0, 1.0, 1.608195258057371E9, 2020-12-17 14:39:18.057
48.0, 40241.0078125, 32170.015625, 28939.830078125, 20995.08203125, 27708.697265625, 33917.0703125, 33785.5546875, 26966.193359375, 0.0, 0.0, 0.0, 193.0, 0.0, 1.0, 1.0, 0.0, 0.0, 1.0, 1.0, 256.0, 1.0, 1.608195258057373E9, 2020-12-17 14:39:18.057
49.0, 40229.29296875, 32158.302734375, 28927.359375, 20985.134765625, 27694.681640625, 33891.6796875, 33763.24609375, 26946.703125, 0.0, 0.0, 0.0, 193.0, 0.0, 1.0, 1.0, 0.0, 0.0, 1.0, 1.0, 256.0, 1.0, 1.608195258057375E9, 2020-12-17 14:39:18.057
50.0, 40311.4140625, 32251.30859375, 29015.111328125, 21077.806640625, 27748.080078125, 33964.12109375, 33824.984375, 27022.005859375, 0.0, 0.0, 0.0, 193.0, 0.0, 1.0, 1.0, 0.0, 0.0, 1.0, 1.0, 256.0, 1.0, 1.608195258057377E9, 2020-12-17 14:39:18.057
51.0, 40351.1328125, 32294.380859375, 29051.857421875, 21116.072265625, 27758.384765625, 33990.83203125, 33847.9375, 27059.423828125, 0.0, 0.0, 0.0, 193.0, 0.0, 1.0, 1.0, 0.0, 0.0, 1.0, 1.0, 256.0, 1.0, 1.60819525805738E9, 2020-12-17 14:39:18.057
52.0, 40295.45703125, 32233.181640625, 28992.06640625, 21052.01171875, 27713.0546875, 33926.4140625, 33798.05078125, 27004.125, 0.0, 0.0, 0.0, 193.0, 0.0, 1.0, 1.0, 0.0, 0.0, 1.0, 1.0, 256.0, 1.0, 1.608195258057383E9, 2020-12-17 14:39:18.057
53.0, 40234.16796875, 32154.861328125, 28914.39453125, 20972.8203125, 27668.083984375, 33850.6875, 33726.76953125, 26915.880859375, 0.0, 0.0, 0.0, 193.0, 0.0, 1.0, 1.0, 0.0, 0.0, 1.0, 1.0, 256.0, 1.0, 1.608195258057396E9, 2020-12-17 14:39:18.057
54.0, 40223.99609375, 32145.47265625, 28906.458984375, 20965.3984375, 27680.845703125, 33848.5625, 33718.65625, 26898.9609375, 0.0, 0.0, 0.0, 193.0, 0.0, 1.0, 1.0, 0.0, 0.0, 1.0, 1.0, 256.0, 1.0, 1.608195258057398E9, 2020-12-17 14:39:18.057
55.0, 40319.4609375, 32242.30078125, 29002.3046875, 21073.291015625, 27756.91015625, 33949.4140625, 33793.69140625, 26978.64453125, 0.0, 0.0, 0.0, 193.0, 0.0, 1.0, 1.0, 0.0, 0.0, 1.0, 1.0, 256.0, 1.0, 1.6081952580574E9, 2020-12-17 14:39:18.057
56.0, 40370.40234375, 32302.650390625, 29057.712890625, 21133.70703125, 27797.1640625, 34000.7109375, 33837.61328125, 27012.23828125, 0.0, 0.0, 0.0, 193.0, 0.0, 1.0, 1.0, 0.0, 0.0, 1.0, 1.0, 256.0, 1.0, 1.608195258057403E9, 2020-12-17 14:39:18.057
57.0, 40317.13671875, 32243.931640625, 29000.1796875, 21073.55859375, 27746.470703125, 33943.515625, 33790.8984375, 26959.869140625, 0.0, 0.0, 0.0, 193.0, 0.0, 1.0, 1.0, 0.0, 0.0, 1.0, 1.0, 256.0, 1.0, 1.608195258057405E9, 2020-12-17 14:39:18.057
58.0, 40244.0234375, 32164.29296875, 28925.97265625, 20993.78515625, 27695.95703125, 33873.26171875, 33736.359375, 26895.361328125, 0.0, 0.0, 0.0, 193.0, 0.0, 1.0, 1.0, 0.0, 0.0, 1.0, 1.0, 256.0, 1.0, 1.608195258057407E9, 2020-12-17 14:39:18.057
59.0, 40237.25, 32156.42578125, 28920.33984375, 20990.478515625, 27705.34375, 33873.30859375, 33732.3125, 26887.896484375, 0.0, 0.0, 0.0, 193.0, 0.0, 1.0, 1.0, 0.0, 0.0, 1.0, 1.0, 256.0, 1.0, 1.60819525805741E9, 2020-12-17 14:39:18.057
60.0, 40315.16796875, 32248.939453125, 29010.283203125, 21087.595703125, 27769.560546875, 33960.5234375, 33804.3515625, 26971.759765625, 0.0, 0.0, 0.0, 193.0, 0.0, 1.0, 1.0, 0.0, 0.0, 1.0, 1.0, 256.0, 1.0, 1.608195258057412E9, 2020-12-17 14:39:18.057
61.0, 40367.4296875, 32305.064453125, 29063.591796875, 21147.96875, 27803.736328125, 34008.55859375, 33850.77734375, 27025.3359375, 0.0, 0.0, 0.0, 193.0, 0.0, 1.0, 1.0, 0.0, 0.0, 1.0, 1.0, 256.0, 1.0, 1.608195258117622E9, 2020-12-17 14:39:18.117
62.0, 40329.05078125, 32254.638671875, 29016.900390625, 21103.353515625, 27769.671875, 33969.75390625, 33816.421875, 26981.37109375, 0.0, 0.0, 0.0, 193.0, 0.0, 1.0, 1.0, 0.0, 0.0, 1.0, 1.0, 256.0, 1.0, 1.608195258117638E9, 2020-12-17 14:39:18.117
63.0, 40259.15625, 32172.96484375, 28938.712890625, 21023.849609375, 27720.87890625, 33901.0234375, 33754.30859375, 26900.94921875, 0.0, 0.0, 0.0, 193.0, 0.0, 1.0, 1.0, 0.0, 0.0, 1.0, 1.0, 256.0, 1.0, 1.608195258117645E9, 2020-12-17 14:39:18.117
64.0, 40248.875, 32160.671875, 28927.158203125, 21013.701171875, 27719.783203125, 33890.18359375, 33743.66796875, 26891.337890625, 0.0, 0.0, 0.0, 193.0, 0.0, 1.0, 1.0, 0.0, 0.0, 1.0, 1.0, 256.0, 1.0, 1.608195258117652E9, 2020-12-17 14:39:18.117
65.0, 40331.80078125, 32255.509765625, 29018.46484375, 21112.115234375, 27791.287109375, 33975.23046875, 33819.37109375, 26976.72265625, 0.0, 0.0, 0.0, 193.0, 0.0, 1.0, 1.0, 0.0, 0.0, 1.0, 1.0, 256.0, 1.0, 1.608195258117659E9, 2020-12-17 14:39:18.117
66.0, 40384.50390625, 32314.765625, 29072.755859375, 21175.7734375, 27826.2890625, 34026.4375, 33859.78515625, 27023.123046875, 0.0, 0.0, 0.0, 193.0, 0.0, 1.0, 1.0, 0.0, 0.0, 1.0, 1.0, 256.0, 1.0, 1.608195258117666E9, 2020-12-17 14:39:18.117
67.0, 40333.23046875, 32256.11328125, 29014.552734375, 21117.546875, 27783.6640625, 33969.2421875, 33813.1796875, 26978.755859375, 0.0, 0.0, 0.0, 193.0, 0.0, 1.0, 1.0, 0.0, 0.0, 1.0, 1.0, 256.0, 1.0, 1.608195258117673E9, 2020-12-17 14:39:18.117
68.0, 40260.02734375, 32169.970703125, 28931.091796875, 21032.8125, 27729.572265625, 33892.59765625, 33752.875, 26908.90625, 0.0, 0.0, 0.0, 193.0, 0.0, 1.0, 1.0, 0.0, 0.0, 1.0, 1.0, 256.0, 1.0, 1.60819525811768E9, 2020-12-17 14:39:18.117
69.0, 40253.234375, 32161.923828125, 28925.458984375, 21028.1171875, 27734.78125, 33892.53125, 33746.9296875, 26897.865234375, 0.0, 0.0, 0.0, 193.0, 0.0, 1.0, 1.0, 0.0, 0.0, 1.0, 1.0, 256.0, 1.0, 1.608195258117687E9, 2020-12-17 14:39:18.117
70.0, 40337.54296875, 32261.12109375, 29019.873046875, 21125.28125, 27786.16796875, 33973.265625, 33814.90234375, 26975.4921875, 0.0, 0.0, 0.0, 193.0, 0.0, 1.0, 1.0, 0.0, 0.0, 1.0, 1.0, 256.0, 1.0, 1.608195258117694E9, 2020-12-17 14:39:18.117
71.0, 40394.83203125, 32328.287109375, 29083.126953125, 21191.486328125, 27820.455078125, 34026.015625, 33864.546875, 27030.052734375, 0.0, 0.0, 0.0, 193.0, 0.0, 1.0, 1.0, 0.0, 0.0, 1.0, 1.0, 256.0, 1.0, 1.608195258117701E9, 2020-12-17 14:39:18.117
72.0, 40326.81640625, 32258.685546875, 29019.58203125, 21124.767578125, 27774.634765625, 33968.125, 33818.0546875, 26981.884765625, 0.0, 0.0, 0.0, 193.0, 0.0, 1.0, 1.0, 0.0, 0.0, 1.0, 1.0, 256.0, 1.0, 1.608195258117709E9, 2020-12-17 14:39:18.117
73.0, 40239.171875, 32161.3203125, 28928.990234375, 21032.431640625, 27717.369140625, 33884.640625, 33746.1484375, 26897.150390625, 0.0, 0.0, 0.0, 193.0, 0.0, 1.0, 1.0, 0.0, 0.0, 1.0, 1.0, 256.0, 1.0, 1.608195258117716E9, 2020-12-17 14:39:18.117
74.0, 40230.8828125, 32150.412109375, 28918.283203125, 21025.81640625, 27726.845703125, 33887.43359375, 33732.89453125, 26887.650390625, 0.0, 0.0, 0.0, 193.0, 0.0, 1.0, 1.0, 0.0, 0.0, 1.0, 1.0, 256.0, 1.0, 1.608195258117723E9, 2020-12-17 14:39:18.117
75.0, 40318.38671875, 32251.30859375, 29015.333984375, 21132.74609375, 27793.72265625, 33976.2578125, 33812.95703125, 26980.455078125, 0.0, 0.0, 0.0, 193.0, 0.0, 1.0, 1.0, 0.0, 0.0, 1.0, 1.0, 256.0, 1.0, 1.60819525811773E9, 2020-12-17 14:39:18.117
76.0, 40360.609375, 32311.255859375, 29071.416015625, 21192.873046875, 27817.392578125, 34023.21875, 33866.265625, 27034.724609375, 0.0, 0.0, 0.0, 193.0, 0.0, 1.0, 1.0, 0.0, 0.0, 1.0, 1.0, 256.0, 1.0, 1.60819525817661E9, 2020-12-17 14:39:18.176
77.0, 40309.08984375, 32252.515625, 29012.318359375, 21129.662109375, 27769.783203125, 33966.8046875, 33817.1171875, 26985.685546875, 0.0, 0.0, 0.0, 193.0, 0.0, 1.0, 1.0, 0.0, 0.0, 1.0, 1.0, 256.0, 1.0, 1.608195258176619E9, 2020-12-17 14:39:18.176
78.0, 40226.87890625, 32163.376953125, 28923.580078125, 21034.95703125, 27708.583984375, 33881.46484375, 33735.3515625, 26902.0, 0.0, 0.0, 0.0, 193.0, 0.0, 1.0, 1.0, 0.0, 0.0, 1.0, 1.0, 256.0, 1.0, 1.608195258176621E9, 2020-12-17 14:39:18.176
79.0, 40210.83203125, 32149.787109375, 28910.572265625, 21022.41796875, 27715.021484375, 33869.88671875, 33723.6640625, 26886.263671875, 0.0, 0.0, 0.0, 193.0, 0.0, 1.0, 1.0, 0.0, 0.0, 1.0, 1.0, 256.0, 1.0, 1.608195258176622E9, 2020-12-17 14:39:18.176
80.0, 40299.61328125, 32248.759765625, 29008.31640625, 21127.806640625, 27785.541015625, 33959.16015625, 33808.82421875, 26976.296875, 0.0, 0.0, 0.0, 193.0, 0.0, 1.0, 1.0, 0.0, 0.0, 1.0, 1.0, 256.0, 1.0, 1.608195258176623E9, 2020-12-17 14:39:18.176
81.0, 40358.21875, 32310.630859375, 29069.068359375, 21196.583984375, 27818.95703125, 34020.5625, 33859.671875, 27032.9140625, 0.0, 0.0, 0.0, 193.0, 0.0, 1.0, 1.0, 0.0, 0.0, 1.0, 1.0, 256.0, 1.0, 1.608195258176625E9, 2020-12-17 14:39:18.176
82.0, 40314.41015625, 32254.4375, 29014.306640625, 21140.435546875, 27771.548828125, 33968.37109375, 33808.93359375, 26975.201171875, 0.0, 0.0, 0.0, 193.0, 0.0, 1.0, 1.0, 0.0, 0.0, 1.0, 1.0, 256.0, 1.0, 1.608195258176626E9, 2020-12-17 14:39:18.176
83.0, 40230.546875, 32164.29296875, 28927.828125, 21048.48046875, 27713.189453125, 33885.82421875, 33742.83984375, 26897.037109375, 0.0, 0.0, 0.0, 193.0, 0.0, 1.0, 1.0, 0.0, 0.0, 1.0, 1.0, 256.0, 1.0, 1.608195258176628E9, 2020-12-17 14:39:18.176
84.0, 40220.0859375, 32152.021484375, 28917.255859375, 21041.39453125, 27719.873046875, 33879.1171875, 33736.0234375, 26888.365234375, 0.0, 0.0, 0.0, 193.0, 0.0, 1.0, 1.0, 0.0, 0.0, 1.0, 1.0, 256.0, 1.0, 1.608195258176629E9, 2020-12-17 14:39:18.176
85.0, 40314.69921875, 32253.767578125, 29015.46875, 21147.72265625, 27800.3828125, 33973.80078125, 33815.52734375, 26976.54296875, 0.0, 0.0, 0.0, 193.0, 0.0, 1.0, 1.0, 0.0, 0.0, 1.0, 1.0, 256.0, 1.0, 1.60819525817663E9, 2020-12-17 14:39:18.176
86.0, 40373.5078125, 32315.97265625, 29074.947265625, 21213.681640625, 27841.17578125, 34032.8984375, 33868.6796875, 27029.359375, 0.0, 0.0, 0.0, 193.0, 0.0, 1.0, 1.0, 0.0, 0.0, 1.0, 1.0, 256.0, 1.0, 1.608195258176632E9, 2020-12-17 14:39:18.176
87.0, 40322.0546875, 32258.08203125, 29017.79296875, 21156.439453125, 27791.30859375, 33980.44140625, 33827.30859375, 26983.560546875, 0.0, 0.0, 0.0, 193.0, 0.0, 1.0, 1.0, 0.0, 0.0, 1.0, 1.0, 256.0, 1.0, 1.608195258176633E9, 2020-12-17 14:39:18.176
88.0, 40237.4765625, 32167.958984375, 28931.203125, 21064.751953125, 27727.3828125, 33893.1328125, 33757.125, 26905.53125, 0.0, 0.0, 0.0, 193.0, 0.0, 1.0, 1.0, 0.0, 0.0, 1.0, 1.0, 256.0, 1.0, 1.608195258176635E9, 2020-12-17 14:39:18.176
89.0, 40220.9140625, 32156.8046875, 28921.345703125, 21054.693359375, 27724.1640625, 33885.265625, 33750.21484375, 26901.015625, 0.0, 0.0, 0.0, 193.0, 0.0, 1.0, 1.0, 0.0, 0.0, 1.0, 1.0, 256.0, 1.0, 1.608195258176636E9, 2020-12-17 14:39:18.176
90.0, 40315.90625, 32255.48828125, 29018.6875, 21163.033203125, 27807.423828125, 33983.234375, 33828.671875, 26989.349609375, 0.0, 0.0, 0.0, 193.0, 0.0, 1.0, 1.0, 0.0, 0.0, 1.0, 1.0, 256.0, 1.0, 1.608195258176638E9, 2020-12-17 14:39:18.176
91.0, 40380.1015625, 32324.265625, 29083.6640625, 21232.79296875, 27850.876953125, 34043.13671875, 33880.83984375, 27042.7265625, 0.0, 0.0, 0.0, 193.0, 0.0, 1.0, 1.0, 0.0, 0.0, 1.0, 1.0, 256.0, 1.0, 1.608195258236818E9, 2020-12-17 14:39:18.236
92.0, 40320.890625, 32259.421875, 29019.828125, 21166.498046875, 27794.05859375, 33986.0703125, 33825.69921875, 26984.43359375, 0.0, 0.0, 0.0, 193.0, 0.0, 1.0, 1.0, 0.0, 0.0, 1.0, 1.0, 256.0, 1.0, 1.608195258236824E9, 2020-12-17 14:39:18.236
93.0, 40238.75, 32173.32421875, 28938.578125, 21083.169921875, 27734.916015625, 33911.1484375, 33763.24609375, 26914.115234375, 0.0, 0.0, 0.0, 193.0, 0.0, 1.0, 1.0, 0.0, 0.0, 1.0, 1.0, 256.0, 1.0, 1.608195258236826E9, 2020-12-17 14:39:18.236
94.0, 40230.48046875, 32159.30859375, 28927.24609375, 21078.72265625, 27738.982421875, 33906.859375, 33752.62890625, 26899.67578125, 0.0, 0.0, 0.0, 193.0, 0.0, 1.0, 1.0, 0.0, 0.0, 1.0, 1.0, 256.0, 1.0, 1.608195258236827E9, 2020-12-17 14:39:18.236
95.0, 40316.0625, 32253.990234375, 29018.3515625, 21177.115234375, 27808.541015625, 33991.1015625, 33818.27734375, 26975.044921875, 0.0, 0.0, 0.0, 193.0, 0.0, 1.0, 1.0, 0.0, 0.0, 1.0, 1.0, 256.0, 1.0, 1.608195258236829E9, 2020-12-17 14:39:18.236
96.0, 40370.37890625, 32319.03515625, 29081.31640625, 21240.056640625, 27841.01953125, 34040.65625, 33873.30859375, 27029.60546875, 0.0, 0.0, 0.0, 193.0, 0.0, 1.0, 1.0, 0.0, 0.0, 1.0, 1.0, 256.0, 1.0, 1.608195258236831E9, 2020-12-17 14:39:18.236
97.0, 40315.34765625, 32259.130859375, 29022.8671875, 21174.119140625, 27785.474609375, 33974.1796875, 33826.68359375, 26976.990234375, 0.0, 0.0, 0.0, 193.0, 0.0, 1.0, 1.0, 0.0, 0.0, 1.0, 1.0, 256.0, 1.0, 1.608195258236832E9, 2020-12-17 14:39:18.236
98.0, 40241.7421875, 32174.955078125, 28940.43359375, 21091.171875, 27743.005859375, 33903.796875, 33755.22265625, 26905.7109375, 0.0, 0.0, 0.0, 193.0, 0.0, 1.0, 1.0, 0.0, 0.0, 1.0, 1.0, 256.0, 1.0, 1.608195258236834E9, 2020-12-17 14:39:18.236
99.0, 40220.01953125, 32153.005859375, 28921.234375, 21074.140625, 27730.869140625, 33889.69140625, 33743.21875, 26888.6328125, 0.0, 0.0, 0.0, 193.0, 0.0, 1.0, 1.0, 0.0, 0.0, 1.0, 1.0, 256.0, 1.0, 1.608195258236836E9, 2020-12-17 14:39:18.236
100.0, 40306.51953125, 32251.263671875, 29015.669921875, 21175.080078125, 27797.8125, 33979.61328125, 33828.44921875, 26972.408203125, 0.0, 0.0, 0.0, 193.0, 0.0, 1.0, 1.0, 0.0, 0.0, 1.0, 1.0, 256.0, 1.0, 1.608195258236845E9, 2020-12-17 14:39:18.236
101.0, 40375.140625, 32323.34765625, 29084.9609375, 21252.640625, 27848.998046875, 34044.609375, 33882.31640625, 27030.611328125, 0.0, 0.0, 0.0, 193.0, 0.0, 1.0, 1.0, 0.0, 0.0, 1.0, 1.0, 256.0, 1.0, 1.608195258236847E9, 2020-12-17 14:39:18.236
102.0, 40323.57421875, 32260.875, 29022.53125, 21185.65234375, 27802.126953125, 33982.71875, 33823.1484375, 26972.69921875, 0.0, 0.0, 0.0, 193.0, 0.0, 1.0, 1.0, 0.0, 0.0, 1.0, 1.0, 256.0, 1.0, 1.608195258236849E9, 2020-12-17 14:39:18.236
103.0, 40244.91796875, 32170.708984375, 28935.2265625, 21093.4296875, 27744.392578125, 33900.21875, 33750.484375, 26894.9375, 0.0, 0.0, 0.0, 193.0, 0.0, 1.0, 1.0, 0.0, 0.0, 1.0, 1.0, 256.0, 1.0, 1.608195258236851E9, 2020-12-17 14:39:18.236
104.0, 40215.50390625, 32145.8984375, 28913.611328125, 21069.892578125, 27728.8359375, 33878.0703125, 33732.06640625, 26878.375, 0.0, 0.0, 0.0, 193.0, 0.0, 1.0, 1.0, 0.0, 0.0, 1.0, 1.0, 256.0, 1.0, 1.608195258236852E9, 2020-12-17 14:39:18.236
105.0, 40305.35546875, 32251.419921875, 29019.11328125, 21182.166015625, 27801.9921875, 33972.83984375, 33824.1796875, 26971.22265625, 0.0, 0.0, 0.0, 193.0, 0.0, 1.0, 1.0, 0.0, 0.0, 1.0, 1.0, 256.0, 1.0, 1.608195258236854E9, 2020-12-17 14:39:18.236
106.0, 40375.67578125, 32322.6328125, 29085.318359375, 21258.228515625, 27857.201171875, 34039.0, 33880.83984375, 27034.009765625, 0.0, 0.0, 0.0, 193.0, 0.0, 1.0, 1.0, 0.0, 0.0, 1.0, 1.0, 256.0, 1.0, 1.608195258296976E9, 2020-12-17 14:39:18.296
107.0, 40320.66796875, 32261.791015625, 29024.587890625, 21194.458984375, 27803.958984375, 33986.51953125, 33825.7421875, 26981.3046875, 0.0, 0.0, 0.0, 193.0, 0.0, 1.0, 1.0, 0.0, 0.0, 1.0, 1.0, 256.0, 1.0, 1.608195258296985E9, 2020-12-17 14:39:18.296
108.0, 40240.203125, 32167.333984375, 28934.3984375, 21101.9453125, 27738.40234375, 33903.70703125, 33754.55078125, 26903.654296875, 0.0, 0.0, 0.0, 193.0, 0.0, 1.0, 1.0, 0.0, 0.0, 1.0, 1.0, 256.0, 1.0, 1.608195258296988E9, 2020-12-17 14:39:18.296
109.0, 40226.6796875, 32151.708984375, 28920.1171875, 21087.8203125, 27731.2265625, 33885.3984375, 33739.578125, 26889.662109375, 0.0, 0.0, 0.0, 193.0, 0.0, 1.0, 1.0, 0.0, 0.0, 1.0, 1.0, 256.0, 1.0, 1.608195258296993E9, 2020-12-17 14:39:18.296
110.0, 40311.94921875, 32253.140625, 29019.0234375, 21194.236328125, 27794.86328125, 33980.26171875, 33822.546875, 26980.990234375, 0.0, 0.0, 0.0, 193.0, 0.0, 1.0, 1.0, 0.0, 0.0, 1.0, 1.0, 256.0, 1.0, 1.608195258296996E9, 2020-12-17 14:39:18.296
111.0, 40370.3125, 32319.83984375, 29083.373046875, 21263.302734375, 27829.26171875, 34039.046875, 33876.7265625, 27039.59765625, 0.0, 0.0, 0.0, 193.0, 0.0, 1.0, 1.0, 0.0, 0.0, 1.0, 1.0, 256.0, 1.0, 1.608195258296998E9, 2020-12-17 14:39:18.296
112.0, 40319.05859375, 32257.857421875, 29023.11328125, 21204.451171875, 27789.6328125, 33985.73828125, 33826.99609375, 26988.61328125, 0.0, 0.0, 0.0, 193.0, 0.0, 1.0, 1.0, 0.0, 0.0, 1.0, 1.0, 256.0, 1.0, 1.608195258297001E9, 2020-12-17 14:39:18.297
113.0, 40237.1171875, 32164.71875, 28932.07421875, 21109.701171875, 27730.869140625, 33898.9453125, 33746.86328125, 26907.6328125, 0.0, 0.0, 0.0, 193.0, 0.0, 1.0, 1.0, 0.0, 0.0, 1.0, 1.0, 256.0, 1.0, 1.608195258297004E9, 2020-12-17 14:39:18.297
114.0, 40208.23828125, 32139.4609375, 28906.705078125, 21079.90625, 27713.2109375, 33868.76953125, 33722.61328125, 26878.75390625, 0.0, 0.0, 0.0, 193.0, 0.0, 1.0, 1.0, 0.0, 0.0, 1.0, 1.0, 256.0, 1.0, 1.608195258297007E9, 2020-12-17 14:39:18.297
115.0, 40299.2109375, 32242.703125, 29007.98046875, 21189.02734375, 27788.939453125, 33961.91015625, 33814.12109375, 26974.46484375, 0.0, 0.0, 0.0, 193.0, 0.0, 1.0, 1.0, 0.0, 0.0, 1.0, 1.0, 256.0, 1.0, 1.60819525829701E9, 2020-12-17 14:39:18.297
116.0, 40362.734375, 32309.9140625, 29071.884765625, 21260.84375, 27830.177734375, 34025.41015625, 33866.82421875, 27036.087890625, 0.0, 0.0, 0.0, 193.0, 0.0, 1.0, 1.0, 0.0, 0.0, 1.0, 1.0, 256.0, 1.0, 1.608195258297013E9, 2020-12-17 14:39:18.297
117.0, 40309.11328125, 32251.197265625, 29015.333984375, 21201.27734375, 27785.18359375, 33970.0234375, 33823.62109375, 26986.84765625, 0.0, 0.0, 0.0, 193.0, 0.0, 1.0, 1.0, 0.0, 0.0, 1.0, 1.0, 256.0, 1.0, 1.608195258297016E9, 2020-12-17 14:39:18.297
118.0, 40229.5390625, 32164.2265625, 28931.359375, 21111.2890625, 27719.91796875, 33887.9921875, 33746.68359375, 26903.36328125, 0.0, 0.0, 0.0, 193.0, 0.0, 1.0, 1.0, 0.0, 0.0, 1.0, 1.0, 256.0, 1.0, 1.608195258297019E9, 2020-12-17 14:39:18.297
119.0, 40215.48046875, 32143.841796875, 28913.27734375, 21095.732421875, 27720.275390625, 33875.49609375, 33731.77734375, 26889.28125, 0.0, 0.0, 0.0, 193.0, 0.0, 1.0, 1.0, 0.0, 0.0, 1.0, 1.0, 256.0, 1.0, 1.608195258297022E9, 2020-12-17 14:39:18.297
120.0, 40298.515625, 32241.67578125, 29009.34375, 21195.779296875, 27791.041015625, 33960.14453125, 33818.61328125, 26982.421875, 0.0, 0.0, 0.0, 193.0, 0.0, 1.0, 1.0, 0.0, 0.0, 1.0, 1.0, 256.0, 1.0, 1.608195258297025E9, 2020-12-17 14:39:18.297
121.0, 40356.83203125, 32308.88671875, 29071.4375, 21261.671875, 27824.92578125, 34008.6484375, 33865.328125, 27041.318359375, 0.0, 0.0, 0.0, 193.0, 0.0, 1.0, 1.0, 0.0, 0.0, 1.0, 1.0, 256.0, 1.0, 1.608195258357384E9, 2020-12-17 14:39:18.357
122.0, 40299.27734375, 32245.251953125, 29007.2890625, 21194.6171875, 27767.638671875, 33942.328125, 33803.9296875, 26980.140625, 0.0, 0.0, 0.0, 193.0, 0.0, 1.0, 1.0, 0.0, 0.0, 1.0, 1.0, 256.0, 1.0, 1.608195258357395E9, 2020-12-17 14:39:18.357
123.0, 40219.2578125, 32153.162109375, 28920.65234375, 21109.388671875, 27716.36328125, 33874.203125, 33744.44921875, 26902.3359375, 0.0, 0.0, 0.0, 193.0, 0.0, 1.0, 1.0, 0.0, 0.0, 1.0, 1.0, 256.0, 1.0, 1.608195258357412E9, 2020-12-17 14:39:18.357
124.0, 40202.94140625, 32131.48046875, 28901.69921875, 21094.501953125, 27718.30859375, 33871.5859375, 33729.5625, 26879.537109375, 0.0, 0.0, 0.0, 193.0, 0.0, 1.0, 1.0, 0.0, 0.0, 1.0, 1.0, 256.0, 1.0, 1.608195258357415E9, 2020-12-17 14:39:18.357
125.0, 40288.32421875, 32230.365234375, 28996.380859375, 21192.24609375, 27785.072265625, 33949.953125, 33803.81640625, 26961.41015625, 0.0, 0.0, 0.0, 193.0, 0.0, 1.0, 1.0, 0.0, 0.0, 1.0, 1.0, 256.0, 1.0, 1.608195258357418E9, 2020-12-17 14:39:18.357
126.0, 40343.66796875, 32291.697265625, 29052.70703125, 21257.89453125, 27817.794921875, 34000.578125, 33843.734375, 27007.298828125, 0.0, 0.0, 0.0, 193.0, 0.0, 1.0, 1.0, 0.0, 0.0, 1.0, 1.0, 256.0, 1.0, 1.608195258357421E9, 2020-12-17 14:39:18.357
127.0, 40282.0234375, 32214.830078125, 28977.470703125, 21184.2890625, 27757.4453125, 33932.4296875, 33775.31640625, 26939.505859375, 0.0, 0.0, 0.0, 193.0, 0.0, 1.0, 1.0, 0.0, 0.0, 1.0, 1.0, 256.0, 1.0, 1.608195258357423E9, 2020-12-17 14:39:18.357
128.0, 40182.890625, 32114.44921875, 28880.53125, 21077.716796875, 27677.515625, 33835.12890625, 33692.68359375, 26853.80859375, 0.0, 0.0, 0.0, 193.0, 0.0, 1.0, 1.0, 0.0, 0.0, 1.0, 1.0, 256.0, 1.0, 1.608195258357426E9, 2020-12-17 14:39:18.357
129.0, 40156.8515625, 32093.169921875, 28861.30859375, 21053.732421875, 27658.78515625, 33811.23828125, 33675.875, 26827.658203125, 0.0, 0.0, 0.0, 193.0, 0.0, 1.0, 1.0, 0.0, 0.0, 1.0, 1.0, 256.0, 1.0, 1.608195258357429E9, 2020-12-17 14:39:18.357
130.0, 40260.4296875, 32205.041015625, 28967.279296875, 21166.341796875, 27729.88671875, 33905.00390625, 33763.3828125, 26921.423828125, 0.0, 0.0, 0.0, 193.0, 0.0, 1.0, 1.0, 0.0, 0.0, 1.0, 1.0, 256.0, 1.0, 1.608195258357432E9, 2020-12-17 14:39:18.357
131.0, 40359.06640625, 32306.583984375, 29064.10546875, 21271.775390625, 27802.193359375, 34001.875, 33848.765625, 27024.95703125, 0.0, 0.0, 0.0, 193.0, 0.0, 1.0, 1.0, 0.0, 0.0, 1.0, 1.0, 256.0, 1.0, 1.608195258357435E9, 2020-12-17 14:39:18.357
132.0, 40326.7265625, 32261.568359375, 29021.638671875, 21233.619140625, 27786.927734375, 33974.203125, 33817.49609375, 26999.38671875, 0.0, 0.0, 0.0, 193.0, 0.0, 1.0, 1.0, 0.0, 0.0, 1.0, 1.0, 256.0, 1.0, 1.608195258357438E9, 2020-12-17 14:39:18.357
133.0, 40238.61328125, 32155.396484375, 28921.546875, 21132.27734375, 27725.125, 33880.05859375, 33732.3125, 26906.26953125, 0.0, 0.0, 0.0, 193.0, 0.0, 1.0, 1.0, 0.0, 0.0, 1.0, 1.0, 256.0, 1.0, 1.608195258357441E9, 2020-12-17 14:39:18.357
134.0, 40227.57421875, 32136.734375, 28906.9296875, 21119.447265625, 27719.447265625, 33871.36328125, 33722.546875, 26883.58203125, 0.0, 0.0, 0.0, 193.0, 0.0, 1.0, 1.0, 0.0, 0.0, 1.0, 1.0, 256.0, 1.0, 1.608195258357444E9, 2020-12-17 14:39:18.357
135.0, 40332.44921875, 32246.2578125, 29015.46875, 21239.54296875, 27804.072265625, 33975.92578125, 33819.59765625, 26981.05859375, 0.0, 0.0, 0.0, 193.0, 0.0, 1.0, 1.0, 0.0, 0.0, 1.0, 1.0, 256.0, 1.0, 1.608195258357447E9, 2020-12-17 14:39:18.357
136.0, 40410.4765625, 32328.84765625, 29096.337890625, 21330.759765625, 27858.564453125, 34054.58203125, 33889.33203125, 27055.958984375, 0.0, 0.0, 0.0, 193.0, 0.0, 1.0, 1.0, 0.0, 0.0, 1.0, 1.0, 256.0, 1.0, 1.608195258416705E9, 2020-12-17 14:39:18.416
137.0, 40373.6875, 32281.52734375, 29050.494140625, 21282.66015625, 27824.724609375, 34024.26953125, 33853.97265625, 27023.080078125, 0.0, 0.0, 0.0, 193.0, 0.0, 1.0, 1.0, 0.0, 0.0, 1.0, 1.0, 256.0, 1.0, 1.608195258416711E9, 2020-12-17 14:39:18.416
138.0, 40295.54296875, 32187.76171875, 28962.40625, 21189.20703125, 27767.28125, 33931.95703125, 33778.91796875, 26947.955078125, 0.0, 0.0, 0.0, 193.0, 0.0, 1.0, 1.0, 0.0, 0.0, 1.0, 1.0, 256.0, 1.0, 1.608195258416713E9, 2020-12-17 14:39:18.416
139.0, 40279.3828125, 32161.34375, 28938.04296875, 21166.474609375, 27760.10546875, 33909.78515625, 33754.0625, 26920.171875, 0.0, 0.0, 0.0, 193.0, 0.0, 1.0, 1.0, 0.0, 0.0, 1.0, 1.0, 256.0, 1.0, 1.608195258416716E9, 2020-12-17 14:39:18.416
140.0, 40368.12109375, 32259.623046875, 29033.73046875, 21268.376953125, 27824.45703125, 33997.1796875, 33836.60546875, 27007.25390625, 0.0, 0.0, 0.0, 193.0, 0.0, 1.0, 1.0, 0.0, 0.0, 1.0, 1.0, 256.0, 1.0, 1.608195258416718E9, 2020-12-17 14:39:18.416
141.0, 40449.63671875, 32343.15234375, 29110.0390625, 21353.759765625, 27875.6640625, 34066.94140625, 33898.609375, 27072.498046875, 0.0, 0.0, 0.0, 193.0, 0.0, 1.0, 1.0, 0.0, 0.0, 1.0, 1.0, 256.0, 1.0, 1.60819525841672E9, 2020-12-17 14:39:18.416
142.0, 40409.11328125, 32290.40234375, 29058.49609375, 21301.76953125, 27841.376953125, 34020.42578125, 33854.59765625, 27021.89453125, 0.0, 0.0, 0.0, 193.0, 0.0, 1.0, 1.0, 0.0, 0.0, 1.0, 1.0, 256.0, 1.0, 1.608195258416723E9, 2020-12-17 14:39:18.416
143.0, 40315.05859375, 32186.578125, 28960.796875, 21200.16015625, 27779.39453125, 33935.421875, 33774.7578125, 26932.107421875, 0.0, 0.0, 0.0, 193.0, 0.0, 1.0, 1.0, 0.0, 0.0, 1.0, 1.0, 256.0, 1.0, 1.608195258416725E9, 2020-12-17 14:39:18.416
144.0, 40278.8046875, 32146.232421875, 28924.630859375, 21161.40234375, 27753.421875, 33899.234375, 33743.9375, 26905.263671875, 0.0, 0.0, 0.0, 193.0, 0.0, 1.0, 1.0, 0.0, 0.0, 1.0, 1.0, 256.0, 1.0, 1.608195258416727E9, 2020-12-17 14:39:18.416
145.0, 40370.6015625, 32250.236328125, 29025.482421875, 21271.775390625, 27829.798828125, 33991.99609375, 33829.0078125, 27000.302734375, 0.0, 0.0, 0.0, 193.0, 0.0, 1.0, 1.0, 0.0, 0.0, 1.0, 1.0, 256.0, 1.0, 1.60819525841673E9, 2020-12-17 14:39:18.416
146.0, 40448.69921875, 32338.345703125, 29107.71484375, 21364.98046875, 27883.28515625, 34072.796875, 33897.40234375, 27069.056640625, 0.0, 0.0, 0.0, 193.0, 0.0, 1.0, 1.0, 0.0, 0.0, 1.0, 1.0, 256.0, 1.0, 1.608195258416739E9, 2020-12-17 14:39:18.416
147.0, 40397.1796875, 32275.560546875, 29046.1796875, 21301.994140625, 27838.783203125, 34017.20703125, 33846.8203125, 27008.595703125, 0.0, 0.0, 0.0, 193.0, 0.0, 1.0, 1.0, 0.0, 0.0, 1.0, 1.0, 256.0, 1.0, 1.608195258416742E9, 2020-12-17 14:39:18.416
148.0, 40299.8125, 32168.205078125, 28939.31640625, 21185.048828125, 27756.015625, 33911.37109375, 33749.25390625, 26911.521484375, 0.0, 0.0, 0.0, 193.0, 0.0, 1.0, 1.0, 0.0, 0.0, 1.0, 1.0, 256.0, 1.0, 1.608195258416744E9, 2020-12-17 14:39:18.416
149.0, 40263.22265625, 32135.28125, 28908.337890625, 21148.6171875, 27735.67578125, 33874.046875, 33720.84765625, 26886.107421875, 0.0, 0.0, 0.0, 193.0, 0.0, 1.0, 1.0, 0.0, 0.0, 1.0, 1.0, 256.0, 1.0, 1.608195258416746E9, 2020-12-17 14:39:18.416
150.0, 40355.8046875, 32237.5390625, 29009.009765625, 21262.005859375, 27815.716796875, 33973.734375, 33810.5, 26981.103515625, 0.0, 0.0, 0.0, 193.0, 0.0, 1.0, 1.0, 0.0, 0.0, 1.0, 1.0, 256.0, 1.0, 1.608195258416749E9, 2020-12-17 14:39:18.416
151.0, 40431.7578125, 32321.359375, 29089.54296875, 21351.16796875, 27871.462890625, 34054.19921875, 33879.9453125, 27057.34375, 0.0, 0.0, 0.0, 193.0, 0.0, 1.0, 1.0, 0.0, 0.0, 1.0, 1.0, 256.0, 1.0, 1.608195258476625E9, 2020-12-17 14:39:18.476
152.0, 40371.2265625, 32249.408203125, 29019.447265625, 21273.0703125, 27804.318359375, 33975.61328125, 33820.84765625, 26994.267578125, 0.0, 0.0, 0.0, 193.0, 0.0, 1.0, 1.0, 0.0, 0.0, 1.0, 1.0, 256.0, 1.0, 1.608195258476631E9, 2020-12-17 14:39:18.476
153.0, 40277.55078125, 32149.18359375, 28921.412109375, 21171.146484375, 27734.9375, 33885.35546875, 33736.73828125, 26901.775390625, 0.0, 0.0, 0.0, 193.0, 0.0, 1.0, 1.0, 0.0, 0.0, 1.0, 1.0, 256.0, 1.0, 1.608195258476633E9, 2020-12-17 14:39:18.476
154.0, 40262.44140625, 32127.703125, 28900.580078125, 21154.3828125, 27738.201171875, 33874.15625, 33716.21875, 26881.234375, 0.0, 0.0, 0.0, 193.0, 0.0, 1.0, 1.0, 0.0, 0.0, 1.0, 1.0, 256.0, 1.0, 1.608195258476635E9, 2020-12-17 14:39:18.476
155.0, 40356.8984375, 32235.595703125, 29006.55078125, 21266.455078125, 27815.537109375, 33969.375, 33809.4921875, 26980.990234375, 0.0, 0.0, 0.0, 193.0, 0.0, 1.0, 1.0, 0.0, 0.0, 1.0, 1.0, 256.0, 1.0, 1.608195258476638E9, 2020-12-17 14:39:18.476
156.0, 40424.671875, 32316.330078125, 29085.1171875, 21351.525390625, 27849.46875, 34041.32421875, 33875.51953125, 27047.93359375, 0.0, 0.0, 0.0, 193.0, 0.0, 1.0, 1.0, 0.0, 0.0, 1.0, 1.0, 256.0, 1.0, 1.60819525847664E9, 2020-12-17 14:39:18.476
157.0, 40384.16796875, 32261.166015625, 29029.86328125, 21299.04296875, 27822.421875, 33999.37109375, 33831.59765625, 27004.326171875, 0.0, 0.0, 0.0, 193.0, 0.0, 1.0, 1.0, 0.0, 0.0, 1.0, 1.0, 256.0, 1.0, 1.608195258476642E9, 2020-12-17 14:39:18.476
158.0, 40286.828125, 32155.0625, 28929.03515625, 21193.498046875, 27758.361328125, 33907.73046875, 33754.796875, 26918.541015625, 0.0, 0.0, 0.0, 193.0, 0.0, 1.0, 1.0, 0.0, 0.0, 1.0, 1.0, 256.0, 1.0, 1.608195258476645E9, 2020-12-17 14:39:18.476
159.0, 40259.0234375, 32122.986328125, 28898.525390625, 21161.916015625, 27736.859375, 33870.69140625, 33728.84765625, 26881.79296875, 0.0, 0.0, 0.0, 193.0, 0.0, 1.0, 1.0, 0.0, 0.0, 1.0, 1.0, 256.0, 1.0, 1.608195258476647E9, 2020-12-17 14:39:18.476
160.0, 40359.13671875, 32230.9453125, 29002.99609375, 21279.0390625, 27811.314453125, 33967.36328125, 33808.0390625, 26968.921875, 0.0, 0.0, 0.0, 193.0, 0.0, 1.0, 1.0, 0.0, 0.0, 1.0, 1.0, 256.0, 1.0, 1.608195258476649E9, 2020-12-17 14:39:18.476
161.0, 40435.5546875, 32324.845703125, 29094.4375, 21378.794921875, 27873.98828125, 34058.9609375, 33890.47265625, 27060.228515625, 0.0, 0.0, 0.0, 193.0, 0.0, 1.0, 1.0, 0.0, 0.0, 1.0, 1.0, 256.0, 1.0, 1.608195258476652E9, 2020-12-17 14:39:18.476
162.0, 40380.32421875, 32259.490234375, 29027.896484375, 21310.46484375, 27830.423828125, 33997.359375, 33831.375, 27000.2578125, 0.0, 0.0, 0.0, 193.0, 0.0, 1.0, 1.0, 0.0, 0.0, 1.0, 1.0, 256.0, 1.0, 1.608195258476654E9, 2020-12-17 14:39:18.476
163.0, 40285.3984375, 32150.7265625, 28923.3359375, 21197.142578125, 27757.19921875, 33896.93359375, 33740.13671875, 26901.775390625, 0.0, 0.0, 0.0, 193.0, 0.0, 1.0, 1.0, 0.0, 0.0, 1.0, 1.0, 256.0, 1.0, 1.608195258476656E9, 2020-12-17 14:39:18.476
164.0, 40250.10546875, 32114.224609375, 28890.142578125, 21162.4296875, 27737.798828125, 33864.859375, 33707.01171875, 26869.25390625, 0.0, 0.0, 0.0, 193.0, 0.0, 1.0, 1.0, 0.0, 0.0, 1.0, 1.0, 256.0, 1.0, 1.608195258476659E9, 2020-12-17 14:39:18.476
165.0, 40346.4609375, 32224.912109375, 28999.15234375, 21279.77734375, 27805.3671875, 33965.328125, 33805.76171875, 26970.28515625, 0.0, 0.0, 0.0, 193.0, 0.0, 1.0, 1.0, 0.0, 0.0, 1.0, 1.0, 256.0, 1.0, 1.608195258476661E9, 2020-12-17 14:39:18.476
166.0, 40433.7890625, 32322.587890625, 29090.525390625, 21377.20703125, 27862.095703125, 34049.83984375, 33881.2421875, 27057.27734375, 0.0, 0.0, 0.0, 193.0, 0.0, 1.0, 1.0, 0.0, 0.0, 1.0, 1.0, 256.0, 1.0, 1.60819525853737E9, 2020-12-17 14:39:18.537
167.0, 40370.84765625, 32252.134765625, 29019.759765625, 21305.16796875, 27810.642578125, 33984.44140625, 33817.29296875, 26995.072265625, 0.0, 0.0, 0.0, 193.0, 0.0, 1.0, 1.0, 0.0, 0.0, 1.0, 1.0, 256.0, 1.0, 1.608195258537376E9, 2020-12-17 14:39:18.537
168.0, 40274.578125, 32144.490234375, 28916.96484375, 21190.97265625, 27741.7109375, 33883.296875, 33732.8046875, 26904.302734375, 0.0, 0.0, 0.0, 193.0, 0.0, 1.0, 1.0, 0.0, 0.0, 1.0, 1.0, 256.0, 1.0, 1.608195258537378E9, 2020-12-17 14:39:18.537
169.0, 40255.66796875, 32113.755859375, 28890.208984375, 21166.990234375, 27732.232421875, 33860.7890625, 33711.2109375, 26879.380859375, 0.0, 0.0, 0.0, 193.0, 0.0, 1.0, 1.0, 0.0, 0.0, 1.0, 1.0, 256.0, 1.0, 1.60819525853738E9, 2020-12-17 14:39:18.537
170.0, 40353.59375, 32226.095703125, 29001.744140625, 21295.35546875, 27813.861328125, 33972.1484375, 33809.42578125, 26975.849609375, 0.0, 0.0, 0.0, 193.0, 0.0, 1.0, 1.0, 0.0, 0.0, 1.0, 1.0, 256.0, 1.0, 1.608195258537387E9, 2020-12-17 14:39:18.537
171.0, 40425.02734375, 32315.904296875, 29085.294921875, 21384.896484375, 27857.828125, 34047.0234375, 33881.7578125, 27053.791015625, 0.0, 0.0, 0.0, 193.0, 0.0, 1.0, 1.0, 0.0, 0.0, 1.0, 1.0, 256.0, 1.0, 1.608195258537389E9, 2020-12-17 14:39:18.537
172.0, 40373.8203125, 32256.716796875, 29026.197265625, 21321.171875, 27810.017578125, 33988.08203125, 33834.59375, 27000.90625, 0.0, 0.0, 0.0, 193.0, 0.0, 1.0, 1.0, 0.0, 0.0, 1.0, 1.0, 256.0, 1.0, 1.60819525853739E9, 2020-12-17 14:39:18.537
173.0, 40287.54296875, 32147.373046875, 28920.5859375, 21210.1953125, 27748.6171875, 33891.01171875, 33741.9921875, 26902.916015625, 0.0, 0.0, 0.0, 193.0, 0.0, 1.0, 1.0, 0.0, 0.0, 1.0, 1.0, 256.0, 1.0, 1.608195258537392E9, 2020-12-17 14:39:18.537
174.0, 40243.93359375, 32109.53125, 28884.0859375, 21165.55859375, 27722.041015625, 33851.8515625, 33705.9375, 26862.34765625, 0.0, 0.0, 0.0, 193.0, 0.0, 1.0, 1.0, 0.0, 0.0, 1.0, 1.0, 256.0, 1.0, 1.608195258537393E9, 2020-12-17 14:39:18.537
175.0, 40344.0703125, 32223.123046875, 28993.765625, 21287.533203125, 27805.345703125, 33954.17578125, 33791.2109375, 26961.03125, 0.0, 0.0, 0.0, 193.0, 0.0, 1.0, 1.0, 0.0, 0.0, 1.0, 1.0, 256.0, 1.0, 1.608195258537395E9, 2020-12-17 14:39:18.537
176.0, 40439.22265625, 32327.4609375, 29094.236328125, 21404.857421875, 27876.9375, 34049.6640625, 33873.7109375, 27056.94140625, 0.0, 0.0, 0.0, 193.0, 0.0, 1.0, 1.0, 0.0, 0.0, 1.0, 1.0, 256.0, 1.0, 1.608195258537396E9, 2020-12-17 14:39:18.537
177.0, 40382.8046875, 32264.18359375, 29036.724609375, 21344.439453125, 27829.59765625, 34002.76953125, 33844.0703125, 27012.10546875, 0.0, 0.0, 0.0, 193.0, 0.0, 1.0, 1.0, 0.0, 0.0, 1.0, 1.0, 256.0, 1.0, 1.608195258537398E9, 2020-12-17 14:39:18.537
178.0, 40282.2890625, 32152.849609375, 28930.912109375, 21231.162109375, 27759.48046875, 33907.68359375, 33756.7421875, 26914.5390625, 0.0, 0.0, 0.0, 193.0, 0.0, 1.0, 1.0, 0.0, 0.0, 1.0, 1.0, 256.0, 1.0, 1.608195258537399E9, 2020-12-17 14:39:18.537
179.0, 40244.0, 32117.35546875, 28896.37890625, 21195.8671875, 27732.0546875, 33871.1171875, 33723.9296875, 26882.666015625, 0.0, 0.0, 0.0, 193.0, 0.0, 1.0, 1.0, 0.0, 0.0, 1.0, 1.0, 256.0, 1.0, 1.608195258537401E9, 2020-12-17 14:39:18.537
180.0, 40353.99609375, 32225.537109375, 28999.287109375, 21317.126953125, 27813.99609375, 33984.08203125, 33806.83203125, 26978.755859375, 0.0, 0.0, 0.0, 193.0, 0.0, 1.0, 1.0, 0.0, 0.0, 1.0, 1.0, 256.0, 1.0, 1.608195258537402E9, 2020-12-17 14:39:18.537
181.0, 40427.3984375, 32326.052734375, 29097.119140625, 21416.078125, 27858.609375, 34068.796875, 33886.515625, 27063.46875, 0.0, 0.0, 0.0, 193.0, 0.0, 1.0, 1.0, 0.0, 0.0, 1.0, 1.0, 256.0, 1.0, 1.608195258596887E9, 2020-12-17 14:39:18.596
182.0, 40377.9765625, 32262.037109375, 29032.8359375, 21350.67578125, 27822.087890625, 34007.328125, 33838.015625, 27014.205078125, 0.0, 0.0, 0.0, 193.0, 0.0, 1.0, 1.0, 0.0, 0.0, 1.0, 1.0, 256.0, 1.0, 1.608195258596895E9, 2020-12-17 14:39:18.596
183.0, 40281.015625, 32144.892578125, 28919.736328125, 21230.78125, 27753.69140625, 33896.53125, 33746.08203125, 26915.8359375, 0.0, 0.0, 0.0, 193.0, 0.0, 1.0, 1.0, 0.0, 0.0, 1.0, 1.0, 256.0, 1.0, 1.608195258596898E9, 2020-12-17 14:39:18.596
184.0, 40245.6796875, 32106.89453125, 28884.443359375, 21197.029296875, 27744.548828125, 33874.89453125, 33719.37109375, 26880.85546875, 0.0, 0.0, 0.0, 193.0, 0.0, 1.0, 1.0, 0.0, 0.0, 1.0, 1.0, 256.0, 1.0, 1.6081952585969E9, 2020-12-17 14:39:18.596
185.0, 40350.328125, 32228.7109375, 29002.52734375, 21319.62890625, 27825.796875, 33975.25390625, 33806.5859375, 26980.90234375, 0.0, 0.0, 0.0, 193.0, 0.0, 1.0, 1.0, 0.0, 0.0, 1.0, 1.0, 256.0, 1.0, 1.608195258596911E9, 2020-12-17 14:39:18.596
186.0, 40437.61328125, 32331.8203125, 29100.853515625, 21421.330078125, 27876.267578125, 34057.10546875, 33884.328125, 27062.708984375, 0.0, 0.0, 0.0, 193.0, 0.0, 1.0, 1.0, 0.0, 0.0, 1.0, 1.0, 256.0, 1.0, 1.608195258596914E9, 2020-12-17 14:39:18.596
187.0, 40387.23046875, 32270.083984375, 29038.625, 21355.28125, 27831.18359375, 33998.4765625, 33832.40234375, 27008.505859375, 0.0, 0.0, 0.0, 193.0, 0.0, 1.0, 1.0, 0.0, 0.0, 1.0, 1.0, 256.0, 1.0, 1.608195258596917E9, 2020-12-17 14:39:18.596
188.0, 40281.59765625, 32145.673828125, 28917.388671875, 21231.630859375, 27761.4921875, 33892.3515625, 33731.21875, 26900.97265625, 0.0, 0.0, 0.0, 193.0, 0.0, 1.0, 1.0, 0.0, 0.0, 1.0, 1.0, 256.0, 1.0, 1.60819525859692E9, 2020-12-17 14:39:18.596
189.0, 40249.703125, 32111.251953125, 28889.046875, 21198.908203125, 27748.05859375, 33862.46875, 33716.9140625, 26874.10546875, 0.0, 0.0, 0.0, 193.0, 0.0, 1.0, 1.0, 0.0, 0.0, 1.0, 1.0, 256.0, 1.0, 1.608195258596922E9, 2020-12-17 14:39:18.596
190.0, 40349.81640625, 32235.103515625, 29010.529296875, 21328.681640625, 27824.970703125, 33976.796875, 33816.04296875, 26976.72265625, 0.0, 0.0, 0.0, 193.0, 0.0, 1.0, 1.0, 0.0, 0.0, 1.0, 1.0, 256.0, 1.0, 1.608195258596925E9, 2020-12-17 14:39:18.596
191.0, 40437.2109375, 32338.8828125, 29111.470703125, 21439.92578125, 27880.73828125, 34073.19921875, 33903.4140625, 27073.705078125, 0.0, 0.0, 0.0, 193.0, 0.0, 1.0, 1.0, 0.0, 0.0, 1.0, 1.0, 256.0, 1.0, 1.608195258596928E9, 2020-12-17 14:39:18.596
192.0, 40381.62109375, 32271.201171875, 29046.1796875, 21375.173828125, 27832.5703125, 34017.85546875, 33855.60546875, 27018.876953125, 0.0, 0.0, 0.0, 193.0, 0.0, 1.0, 1.0, 0.0, 0.0, 1.0, 1.0, 256.0, 1.0, 1.608195258596931E9, 2020-12-17 14:39:18.596
193.0, 40281.0625, 32149.02734375, 28927.560546875, 21249.580078125, 27765.0234375, 33909.515625, 33760.609375, 26914.31640625, 0.0, 0.0, 0.0, 193.0, 0.0, 1.0, 1.0, 0.0, 0.0, 1.0, 1.0, 256.0, 1.0, 1.608195258596943E9, 2020-12-17 14:39:18.596
194.0, 40228.64453125, 32097.23828125, 28876.173828125, 21190.63671875, 27732.388671875, 33850.28515625, 33711.16796875, 26865.544921875, 0.0, 0.0, 0.0, 193.0, 0.0, 1.0, 1.0, 0.0, 0.0, 1.0, 1.0, 256.0, 1.0, 1.608195258596946E9, 2020-12-17 14:39:18.596
195.0, 40329.20703125, 32213.98046875, 28988.490234375, 21315.94140625, 27818.287109375, 33960.65625, 33793.80078125, 26964.31640625, 0.0, 0.0, 0.0, 193.0, 0.0, 1.0, 1.0, 0.0, 0.0, 1.0, 1.0, 256.0, 1.0, 1.608195258596949E9, 2020-12-17 14:39:18.596
196.0, 40421.765625, 32323.482421875, 29093.72265625, 21424.59375, 27863.392578125, 34050.55859375, 33879.85546875, 27058.08203125, 0.0, 0.0, 0.0, 193.0, 0.0, 1.0, 1.0, 0.0, 0.0, 1.0, 1.0, 256.0, 1.0, 1.608195258657251E9, 2020-12-17 14:39:18.657
197.0, 40372.34375, 32262.931640625, 29035.83203125, 21365.337890625, 27818.533203125, 33996.64453125, 33841.45703125, 27009.130859375, 0.0, 0.0, 0.0, 193.0, 0.0, 1.0, 1.0, 0.0, 0.0, 1.0, 1.0, 256.0, 1.0, 1.608195258657261E9, 2020-12-17 14:39:18.657
198.0, 40265.05859375, 32150.0546875, 28927.671875, 21246.13671875, 27746.5390625, 33897.06640625, 33756.23046875, 26910.001953125, 0.0, 0.0, 0.0, 193.0, 0.0, 1.0, 1.0, 0.0, 0.0, 1.0, 1.0, 256.0, 1.0, 1.608195258657264E9, 2020-12-17 14:39:18.657
199.0, 40232.84765625, 32099.47265625, 28882.453125, 21212.654296875, 27744.236328125, 33873.84375, 33724.66796875, 26868.896484375, 0.0, 0.0, 0.0, 193.0, 0.0, 1.0, 1.0, 0.0, 0.0, 1.0, 1.0, 256.0, 1.0, 1.608195258657266E9, 2020-12-17 14:39:18.657
200.0, 40343.578125, 32228.755859375, 29009.0546875, 21346.720703125, 27825.328125, 33992.26171875, 33827.0390625, 26970.462890625, 0.0, 0.0, 0.0, 193.0, 0.0, 1.0, 1.0, 0.0, 0.0, 1.0, 1.0, 256.0, 1.0, 1.608195258657268E9, 2020-12-17 14:39:18.657
201.0, 40437.96875, 32340.828125, 29113.8828125, 21454.521484375, 27875.708984375, 34070.26953125, 33907.328125, 27067.0, 0.0, 0.0, 0.0, 193.0, 0.0, 1.0, 1.0, 0.0, 0.0, 1.0, 1.0, 256.0, 1.0, 1.608195258657271E9, 2020-12-17 14:39:18.657
202.0, 40391.3671875, 32262.70703125, 29032.009765625, 21376.693359375, 27831.162109375, 33993.44921875, 33836.984375, 27010.875, 0.0, 0.0, 0.0, 193.0, 0.0, 1.0, 1.0, 0.0, 0.0, 1.0, 1.0, 256.0, 1.0, 1.608195258657273E9, 2020-12-17 14:39:18.657
203.0, 40277.28515625, 32142.857421875, 28918.306640625, 21249.9140625, 27744.34765625, 33883.6796875, 33750.015625, 26916.484375, 0.0, 0.0, 0.0, 193.0, 0.0, 1.0, 1.0, 0.0, 0.0, 1.0, 1.0, 256.0, 1.0, 1.608195258657275E9, 2020-12-17 14:39:18.657
204.0, 40224.93359375, 32095.47265625, 28876.576171875, 21200.5625, 27711.55859375, 33837.9453125, 33716.44140625, 26875.826171875, 0.0, 0.0, 0.0, 193.0, 0.0, 1.0, 1.0, 0.0, 0.0, 1.0, 1.0, 256.0, 1.0, 1.608195258657278E9, 2020-12-17 14:39:18.657
205.0, 40323.8203125, 32218.7421875, 28997.119140625, 21329.240234375, 27793.029296875, 33945.68359375, 33802.4296875, 26974.173828125, 0.0, 0.0, 0.0, 193.0, 0.0, 1.0, 1.0, 0.0, 0.0, 1.0, 1.0, 256.0, 1.0, 1.608195258657281E9, 2020-12-17 14:39:18.657
206.0, 40434.59375, 32333.384765625, 29107.06640625, 21454.611328125, 27873.65234375, 34057.88671875, 33890.80859375, 27076.478515625, 0.0, 0.0, 0.0, 193.0, 0.0, 1.0, 1.0, 0.0, 0.0, 1.0, 1.0, 256.0, 1.0, 1.608195258657283E9, 2020-12-17 14:39:18.657
207.0, 40384.99609375, 32272.029296875, 29042.8046875, 21390.796875, 27830.669921875, 34007.70703125, 33843.7578125, 27026.07421875, 0.0, 0.0, 0.0, 193.0, 0.0, 1.0, 1.0, 0.0, 0.0, 1.0, 1.0, 256.0, 1.0, 1.608195258657286E9, 2020-12-17 14:39:18.657
208.0, 40265.7734375, 32141.47265625, 28916.25, 21253.111328125, 27744.615234375, 33888.796875, 33746.3046875, 26918.853515625, 0.0, 0.0, 0.0, 193.0, 0.0, 1.0, 1.0, 0.0, 0.0, 1.0, 1.0, 256.0, 1.0, 1.608195258657288E9, 2020-12-17 14:39:18.657
209.0, 40233.69921875, 32102.580078125, 28882.744140625, 21218.912109375, 27730.490234375, 33853.37109375, 33719.37109375, 26882.330078125, 0.0, 0.0, 0.0, 193.0, 0.0, 1.0, 1.0, 0.0, 0.0, 1.0, 1.0, 256.0, 1.0, 1.60819525865729E9, 2020-12-17 14:39:18.657
210.0, 40349.6796875, 32227.34765625, 29004.5390625, 21354.609375, 27826.892578125, 33979.09765625, 33815.39453125, 26981.416015625, 0.0, 0.0, 0.0, 193.0, 0.0, 1.0, 1.0, 0.0, 0.0, 1.0, 1.0, 256.0, 1.0, 1.608195258657293E9, 2020-12-17 14:39:18.657
211.0, 40429.07421875, 32328.265625, 29099.82421875, 21455.841796875, 27881.6328125, 34071.3203125, 33891.390625, 27071.380859375, 0.0, 0.0, 0.0, 193.0, 0.0, 1.0, 1.0, 0.0, 0.0, 1.0, 1.0, 256.0, 1.0, 1.608195258716797E9, 2020-12-17 14:39:18.716
212.0, 40366.1328125, 32256.3828125, 29030.646484375, 21381.767578125, 27821.86328125, 34005.71875, 33842.5078125, 27020.330078125, 0.0, 0.0, 0.0, 193.0, 0.0, 1.0, 1.0, 0.0, 0.0, 1.0, 1.0, 256.0, 1.0, 1.608195258716803E9, 2020-12-17 14:39:18.716
213.0, 40263.60546875, 32132.21875, 28911.779296875, 21264.041015625, 27741.888671875, 33894.33984375, 33748.83203125, 26906.603515625, 0.0, 0.0, 0.0, 193.0, 0.0, 1.0, 1.0, 0.0, 0.0, 1.0, 1.0, 256.0, 1.0, 1.608195258716806E9, 2020-12-17 14:39:18.716
214.0, 40219.68359375, 32081.703125, 28863.947265625, 21216.9453125, 27717.927734375, 33845.859375, 33705.3359375, 26859.12890625, 0.0, 0.0, 0.0, 193.0, 0.0, 1.0, 1.0, 0.0, 0.0, 1.0, 1.0, 256.0, 1.0, 1.608195258716808E9, 2020-12-17 14:39:18.716
215.0, 40313.29296875, 32203.005859375, 28981.94140625, 21335.587890625, 27782.970703125, 33941.4140625, 33789.890625, 26951.396484375, 0.0, 0.0, 0.0, 193.0, 0.0, 1.0, 1.0, 0.0, 0.0, 1.0, 1.0, 256.0, 1.0, 1.60819525871681E9, 2020-12-17 14:39:18.716
216.0, 40428.26953125, 32330.9921875, 29104.787109375, 21468.939453125, 27871.796875, 34059.72265625, 33890.65234375, 27067.15625, 0.0, 0.0, 0.0, 193.0, 0.0, 1.0, 1.0, 0.0, 0.0, 1.0, 1.0, 256.0, 1.0, 1.60819525871682E9, 2020-12-17 14:39:18.716
217.0, 40367.3828125, 32255.15234375, 29030.779296875, 21394.529296875, 27821.998046875, 33996.64453125, 33843.9140625, 27009.04296875, 0.0, 0.0, 0.0, 193.0, 0.0, 1.0, 1.0, 0.0, 0.0, 1.0, 1.0, 256.0, 1.0, 1.608195258716822E9, 2020-12-17 14:39:18.716
218.0, 40255.421875, 32124.841796875, 28908.783203125, 21265.046875, 27741.84375, 33882.359375, 33752.31640625, 26902.759765625, 0.0, 0.0, 0.0, 193.0, 0.0, 1.0, 1.0, 0.0, 0.0, 1.0, 1.0, 256.0, 1.0, 1.608195258716824E9, 2020-12-17 14:39:18.716
219.0, 40211.79296875, 32078.75390625, 28864.83984375, 21222.376953125, 27721.236328125, 33845.63671875, 33710.5859375, 26863.845703125, 0.0, 0.0, 0.0, 193.0, 0.0, 1.0, 1.0, 0.0, 0.0, 1.0, 1.0, 256.0, 1.0, 1.608195258716827E9, 2020-12-17 14:39:18.716
220.0, 40317.96484375, 32205.15234375, 28987.39453125, 21354.431640625, 27804.96484375, 33960.94921875, 33801.89453125, 26963.087890625, 0.0, 0.0, 0.0, 193.0, 0.0, 1.0, 1.0, 0.0, 0.0, 1.0, 1.0, 256.0, 1.0, 1.608195258716829E9, 2020-12-17 14:39:18.716
221.0, 40421.0703125, 32323.705078125, 29100.0703125, 21473.990234375, 27865.11328125, 34066.89453125, 33892.88671875, 27063.55859375, 0.0, 0.0, 0.0, 193.0, 0.0, 1.0, 1.0, 0.0, 0.0, 1.0, 1.0, 256.0, 1.0, 1.608195258716831E9, 2020-12-17 14:39:18.716
222.0, 40365.70703125, 32259.533203125, 29035.763671875, 21407.29296875, 27813.794921875, 34006.48046875, 33846.375, 27012.037109375, 0.0, 0.0, 0.0, 193.0, 0.0, 1.0, 1.0, 0.0, 0.0, 1.0, 1.0, 256.0, 1.0, 1.608195258716834E9, 2020-12-17 14:39:18.716
223.0, 40257.30078125, 32133.89453125, 28911.197265625, 21275.037109375, 27743.07421875, 33886.31640625, 33743.109375, 26897.39453125, 0.0, 0.0, 0.0, 193.0, 0.0, 1.0, 1.0, 0.0, 0.0, 1.0, 1.0, 256.0, 1.0, 1.608195258716836E9, 2020-12-17 14:39:18.716
224.0, 40213.53515625, 32082.865234375, 28863.34375, 21220.923828125, 27718.083984375, 33838.03515625, 33705.37890625, 26847.6171875, 0.0, 0.0, 0.0, 193.0, 0.0, 1.0, 1.0, 0.0, 0.0, 1.0, 1.0, 256.0, 1.0, 1.608195258716839E9, 2020-12-17 14:39:18.716
225.0, 40333.51953125, 32212.908203125, 28993.67578125, 21366.501953125, 27817.236328125, 33963.33984375, 33804.77734375, 26947.462890625, 0.0, 0.0, 0.0, 193.0, 0.0, 1.0, 1.0, 0.0, 0.0, 1.0, 1.0, 256.0, 1.0, 1.608195258716841E9, 2020-12-17 14:39:18.716
226.0, 40441.32421875, 32335.306640625, 29109.771484375, 21498.623046875, 27892.427734375, 34073.19921875, 33896.44140625, 27042.927734375, 0.0, 0.0, 0.0, 193.0, 0.0, 1.0, 1.0, 0.0, 0.0, 1.0, 1.0, 256.0, 1.0, 1.608195258776598E9, 2020-12-17 14:39:18.776
227.0, 40390.47265625, 32267.15625, 29042.470703125, 21430.091796875, 27850.697265625, 34014.94921875, 33851.671875, 27002.404296875, 0.0, 0.0, 0.0, 193.0, 0.0, 1.0, 1.0, 0.0, 0.0, 1.0, 1.0, 256.0, 1.0, 1.608195258776604E9, 2020-12-17 14:39:18.776
228.0, 40274.69140625, 32145.78515625, 28924.787109375, 21301.94921875, 27778.0546875, 33909.78515625, 33763.60546875, 26901.396484375, 0.0, 0.0, 0.0, 193.0, 0.0, 1.0, 1.0, 0.0, 0.0, 1.0, 1.0, 256.0, 1.0, 1.608195258776606E9, 2020-12-17 14:39:18.776
229.0, 40237.5859375, 32100.478515625, 28886.029296875, 21264.30859375, 27774.12109375, 33887.90234375, 33736.91796875, 26864.337890625, 0.0, 0.0, 0.0, 193.0, 0.0, 1.0, 1.0, 0.0, 0.0, 1.0, 1.0, 256.0, 1.0, 1.608195258776608E9, 2020-12-17 14:39:18.776
230.0, 40341.96875, 32227.123046875, 29010.283203125, 21394.865234375, 27847.634765625, 34002.41015625, 33844.80859375, 26988.322265625, 0.0, 0.0, 0.0, 193.0, 0.0, 1.0, 1.0, 0.0, 0.0, 1.0, 1.0, 256.0, 1.0, 1.608195258776611E9, 2020-12-17 14:39:18.776
231.0, 40446.5546875, 32349.74609375, 29129.552734375, 21521.353515625, 27904.095703125, 34111.109375, 33954.5546875, 27126.076171875, 0.0, 0.0, 0.0, 193.0, 0.0, 1.0, 1.0, 0.0, 0.0, 1.0, 1.0, 256.0, 1.0, 1.608195258776613E9, 2020-12-17 14:39:18.776
232.0, 40374.4453125, 32274.5546875, 29056.126953125, 21444.44140625, 27830.46875, 34040.0078125, 33902.453125, 27083.96484375, 0.0, 0.0, 0.0, 193.0, 0.0, 1.0, 1.0, 0.0, 0.0, 1.0, 1.0, 256.0, 1.0, 1.608195258776615E9, 2020-12-17 14:39:18.776
233.0, 40244.89453125, 32135.97265625, 28918.619140625, 21296.517578125, 27732.45703125, 33901.55859375, 33785.95703125, 26959.130859375, 0.0, 0.0, 0.0, 193.0, 0.0, 1.0, 1.0, 0.0, 0.0, 1.0, 1.0, 256.0, 1.0, 1.608195258776618E9, 2020-12-17 14:39:18.776
234.0, 40200.08203125, 32072.248046875, 28854.55859375, 21233.6640625, 27707.736328125, 33845.30078125, 33726.390625, 26896.859375, 0.0, 0.0, 0.0, 193.0, 0.0, 1.0, 1.0, 0.0, 0.0, 1.0, 1.0, 256.0, 1.0, 1.60819525877662E9, 2020-12-17 14:39:18.776
235.0, 40290.828125, 32188.27734375, 28968.888671875, 21353.26953125, 27764.1953125, 33945.68359375, 33807.21484375, 26995.1171875, 0.0, 0.0, 0.0, 193.0, 0.0, 1.0, 1.0, 0.0, 0.0, 1.0, 1.0, 256.0, 1.0, 1.608195258776622E9, 2020-12-17 14:39:18.776
236.0, 40400.015625, 32316.306640625, 29088.6484375, 21479.0859375, 27827.98828125, 34046.46484375, 33904.19921875, 27103.658203125, 0.0, 0.0, 0.0, 193.0, 0.0, 1.0, 1.0, 0.0, 0.0, 1.0, 1.0, 256.0, 1.0, 1.608195258776625E9, 2020-12-17 14:39:18.776
237.0, 40340.4921875, 32244.15625, 29015.603515625, 21403.359375, 27775.08203125, 33979.07421875, 33840.359375, 27028.95703125, 0.0, 0.0, 0.0, 193.0, 0.0, 1.0, 1.0, 0.0, 0.0, 1.0, 1.0, 256.0, 1.0, 1.608195258776627E9, 2020-12-17 14:39:18.776
238.0, 40229.16015625, 32114.560546875, 28890.8125, 21270.455078125, 27696.515625, 33860.30078125, 33734.19140625, 26907.767578125, 0.0, 0.0, 0.0, 193.0, 0.0, 1.0, 1.0, 0.0, 0.0, 1.0, 1.0, 256.0, 1.0, 1.608195258776629E9, 2020-12-17 14:39:18.776
239.0, 40194.6953125, 32072.60546875, 28857.5546875, 21235.005859375, 27689.67578125, 33842.10546875, 33715.01171875, 26858.861328125, 0.0, 0.0, 0.0, 193.0, 0.0, 1.0, 1.0, 0.0, 0.0, 1.0, 1.0, 256.0, 1.0, 1.608195258776642E9, 2020-12-17 14:39:18.776
240.0, 40311.34765625, 32201.77734375, 28980.353515625, 21371.59765625, 27787.083984375, 33961.55078125, 33793.109375, 26944.400390625, 0.0, 0.0, 0.0, 193.0, 0.0, 1.0, 1.0, 0.0, 0.0, 1.0, 1.0, 256.0, 1.0, 1.608195258776644E9, 2020-12-17 14:39:18.776
241.0, 40428.26953125, 32329.31640625, 29104.228515625, 21499.359375, 27863.548828125, 34078.765625, 33906.4765625, 27056.09375, 0.0, 0.0, 0.0, 193.0, 0.0, 1.0, 1.0, 0.0, 0.0, 1.0, 1.0, 256.0, 1.0, 1.608195258836827E9, 2020-12-17 14:39:18.836
242.0, 40377.95703125, 32269.234375, 29039.33984375, 21426.806640625, 27826.35546875, 34019.0390625, 33879.453125, 27024.330078125, 0.0, 0.0, 0.0, 193.0, 0.0, 1.0, 1.0, 0.0, 0.0, 1.0, 1.0, 256.0, 1.0, 1.608195258836835E9, 2020-12-17 14:39:18.836
243.0, 40299.14453125, 32134.85546875, 28913.74609375, 21288.11328125, 27767.75, 33897.046875, 33785.0625, 26919.568359375, 0.0, 0.0, 0.0, 193.0, 0.0, 1.0, 1.0, 0.0, 0.0, 1.0, 1.0, 256.0, 1.0, 1.608195258836837E9, 2020-12-17 14:39:18.836
244.0, 40305.46875, 32071.265625, 28852.345703125, 21217.169921875, 27763.16796875, 33889.9140625, 33724.66796875, 26858.81640625, 0.0, 0.0, 0.0, 193.0, 0.0, 1.0, 1.0, 0.0, 0.0, 1.0, 1.0, 256.0, 1.0, 1.608195258836839E9, 2020-12-17 14:39:18.836
245.0, 40426.81640625, 32206.29296875, 28976.30859375, 21359.505859375, 27860.845703125, 34034.08203125, 33804.73046875, 26947.3515625, 0.0, 0.0, 0.0, 193.0, 0.0, 1.0, 1.0, 0.0, 0.0, 1.0, 1.0, 256.0, 1.0, 1.608195258836842E9, 2020-12-17 14:39:18.836
246.0, 40529.38671875, 32337.943359375, 29106.91015625, 21509.84375, 27929.041015625, 34124.78515625, 33909.6953125, 27068.1171875, 0.0, 0.0, 0.0, 193.0, 0.0, 1.0, 1.0, 0.0, 0.0, 1.0, 1.0, 256.0, 1.0, 1.608195258836844E9, 2020-12-17 14:39:18.836
247.0, 40414.96875, 32270.5078125, 29044.615234375, 21451.818359375, 27850.4296875, 34047.31640625, 33856.1875, 27025.0234375, 0.0, 0.0, 0.0, 193.0, 0.0, 1.0, 1.0, 0.0, 0.0, 1.0, 1.0, 256.0, 1.0, 1.608195258836846E9, 2020-12-17 14:39:18.836
248.0, 40252.33984375, 32138.990234375, 28919.19921875, 21299.490234375, 27756.953125, 33937.546875, 33781.57421875, 26922.2734375, 0.0, 0.0, 0.0, 193.0, 0.0, 1.0, 1.0, 0.0, 0.0, 1.0, 1.0, 256.0, 1.0, 1.608195258836849E9, 2020-12-17 14:39:18.836
249.0, 40205.33203125, 32079.736328125, 28869.154296875, 21236.548828125, 27733.306640625, 33883.6328125, 33743.375, 26865.029296875, 0.0, 0.0, 0.0, 193.0, 0.0, 1.0, 1.0, 0.0, 0.0, 1.0, 1.0, 256.0, 1.0, 1.608195258836851E9, 2020-12-17 14:39:18.836
250.0, 40302.8984375, 32212.23828125, 28988.71484375, 21373.474609375, 27786.48046875, 33973.375, 33850.328125, 26960.13671875, 0.0, 0.0, 0.0, 193.0, 0.0, 1.0, 1.0, 0.0, 0.0, 1.0, 1.0, 256.0, 1.0, 1.608195258836853E9, 2020-12-17 14:39:18.836
251.0, 40435.15234375, 32353.92578125, 29113.705078125, 21530.943359375, 27894.70703125, 34076.39453125, 33917.96484375, 27075.6953125, 0.0, 0.0, 0.0, 193.0, 0.0, 1.0, 1.0, 0.0, 0.0, 1.0, 1.0, 256.0, 1.0, 1.608195258836856E9, 2020-12-17 14:39:18.836
252.0, 40368.56640625, 32292.525390625, 29062.251953125, 21471.486328125, 27836.03515625, 34015.98046875, 33900.2421875, 27040.9375, 0.0, 0.0, 0.0, 193.0, 0.0, 1.0, 1.0, 0.0, 0.0, 1.0, 1.0, 256.0, 1.0, 1.608195258836858E9, 2020-12-17 14:39:18.836
253.0, 40252.875, 32153.51953125, 28929.705078125, 21317.08203125, 27754.33984375, 33918.12109375, 33807.79296875, 26943.10546875, 0.0, 0.0, 0.0, 193.0, 0.0, 1.0, 1.0, 0.0, 0.0, 1.0, 1.0, 256.0, 1.0, 1.608195258836861E9, 2020-12-17 14:39:18.836
254.0, 40201.0859375, 32090.689453125, 28874.921875, 21221.86328125, 27735.474609375, 33850.21875, 33741.9453125, 26880.83203125, 0.0, 0.0, 0.0, 193.0, 0.0, 1.0, 1.0, 0.0, 0.0, 1.0, 1.0, 256.0, 1.0, 1.608195258836863E9, 2020-12-17 14:39:18.836
255.0, 40332.359375, 32229.359375, 28990.345703125, 21354.87890625, 27833.798828125, 33964.99609375, 33814.859375, 26961.142578125, 0.0, 0.0, 0.0, 193.0, 0.0, 1.0, 1.0, 0.0, 0.0, 1.0, 1.0, 256.0, 1.0, 1.608195258836865E9, 2020-12-17 14:39:18.836
0.0, 40465.015625, 32360.02734375, 29113.50390625, 21489.279296875, 27909.705078125, 34090.6796875, 33917.5625, 27075.962890625, 0.0, 0.0, 0.0, 193.0, 0.0, 1.0, 1.0, 0.0, 0.0, 1.0, 1.0, 256.0, 1.0, 1.608195258897132E9, 2020-12-17 14:39:18.897
1.0, 40415.37109375, 32303.58984375, 29071.548828125, 21479.935546875, 27872.35546875, 34049.57421875, 33889.69140625, 27051.287109375, 0.0, 0.0, 0.0, 193.0, 0.0, 1.0, 1.0, 0.0, 0.0, 1.0, 1.0, 256.0, 1.0, 1.608195258897148E9, 2020-12-17 14:39:18.897
2.0, 40286.22265625, 32176.453125, 28946.044921875, 21340.931640625, 27785.138671875, 33941.75, 33819.015625, 26956.896484375, 0.0, 0.0, 0.0, 193.0, 0.0, 1.0, 1.0, 0.0, 0.0, 1.0, 1.0, 256.0, 1.0, 1.608195258897155E9, 2020-12-17 14:39:18.897
3.0, 40253.61328125, 32093.572265625, 28854.40234375, 21238.0234375, 27763.123046875, 33875.54296875, 33761.90625, 26901.015625, 0.0, 0.0, 0.0, 193.0, 0.0, 1.0, 1.0, 0.0, 0.0, 1.0, 1.0, 256.0, 1.0, 1.608195258897162E9, 2020-12-17 14:39:18.897
4.0, 40415.6171875, 32212.640625, 28932.1640625, 21307.716796875, 27848.998046875, 33951.8515625, 33788.52734375, 26956.60546875, 0.0, 0.0, 0.0, 193.0, 0.0, 1.0, 1.0, 0.0, 0.0, 1.0, 1.0, 256.0, 1.0, 1.608195258897169E9, 2020-12-17 14:39:18.897
5.0, 40497.6484375, 32366.041015625, 29127.294921875, 21505.037109375, 27911.62890625, 34091.68359375, 33911.1953125, 27064.2734375, 0.0, 0.0, 0.0, 193.0, 0.0, 1.0, 1.0, 0.0, 0.0, 1.0, 1.0, 256.0, 1.0, 1.608195258897176E9, 2020-12-17 14:39:18.897
6.0, 40378.11328125, 32322.56640625, 29132.078125, 21477.3203125, 27843.857421875, 34052.8359375, 33900.28515625, 27033.62890625, 0.0, 0.0, 0.0, 193.0, 0.0, 1.0, 1.0, 0.0, 0.0, 1.0, 1.0, 256.0, 1.0, 1.608195258897183E9, 2020-12-17 14:39:18.897
7.0, 40278.98046875, 32181.28125, 28959.388671875, 21321.75390625, 27775.908203125, 33944.9453125, 33787.90234375, 26933.314453125, 0.0, 0.0, 0.0, 193.0, 0.0, 1.0, 1.0, 0.0, 0.0, 1.0, 1.0, 256.0, 1.0, 1.608195258897219E9, 2020-12-17 14:39:18.897
8.0, 40197.17578125, 32104.814453125, 28850.04296875, 21225.3046875, 27712.49609375, 33821.0703125, 33726.234375, 26867.2421875, 0.0, 0.0, 0.0, 193.0, 0.0, 1.0, 1.0, 0.0, 0.0, 1.0, 1.0, 256.0, 1.0, 1.608195258897228E9, 2020-12-17 14:39:18.897
9.0, 40305.26953125, 32226.7890625, 28970.005859375, 21381.365234375, 27813.90625, 33945.75, 33829.02734375, 26964.427734375, 0.0, 0.0, 0.0, 193.0, 0.0, 1.0, 1.0, 0.0, 0.0, 1.0, 1.0, 256.0, 1.0, 1.608195258897237E9, 2020-12-17 14:39:18.897
10.0, 40449.2578125, 32349.923828125, 29113.83984375, 21512.32421875, 27900.966796875, 34069.4453125, 33917.65234375, 27075.359375, 0.0, 0.0, 0.0, 193.0, 0.0, 1.0, 1.0, 0.0, 0.0, 1.0, 1.0, 256.0, 1.0, 1.608195258897246E9, 2020-12-17 14:39:18.897
11.0, 40404.44140625, 32310.048828125, 29055.76953125, 21412.2109375, 27855.369140625, 33984.75390625, 33850.12890625, 27036.310546875, 0.0, 0.0, 0.0, 193.0, 0.0, 1.0, 1.0, 0.0, 0.0, 1.0, 1.0, 256.0, 1.0, 1.608195258897257E9, 2020-12-17 14:39:18.897
12.0, 40288.7734375, 32167.154296875, 28923.291015625, 21269.025390625, 27769.44921875, 33867.98828125, 33740.94140625, 26909.599609375, 0.0, 0.0, 0.0, 193.0, 0.0, 1.0, 1.0, 0.0, 0.0, 1.0, 1.0, 256.0, 1.0, 1.608195258897267E9, 2020-12-17 14:39:18.897
13.0, 40247.69140625, 32104.390625, 28886.41015625, 21210.732421875, 27749.5546875, 33837.8359375, 33745.09765625, 26870.57421875, 0.0, 0.0, 0.0, 193.0, 0.0, 1.0, 1.0, 0.0, 0.0, 1.0, 1.0, 256.0, 1.0, 1.608195258897278E9, 2020-12-17 14:39:18.897
14.0, 40340.60546875, 32220.955078125, 29000.380859375, 21340.818359375, 27826.35546875, 33953.59375, 33868.32421875, 26971.06640625, 0.0, 0.0, 0.0, 193.0, 0.0, 1.0, 1.0, 0.0, 0.0, 1.0, 1.0, 256.0, 1.0, 1.608195258897287E9, 2020-12-17 14:39:18.897
15.0, 40487.27734375, 32392.951171875, 29113.03515625, 21459.88671875, 27907.76171875, 34093.3828125, 33915.171875, 27061.79296875, 0.0, 0.0, 0.0, 193.0, 0.0, 1.0, 1.0, 0.0, 0.0, 1.0, 1.0, 256.0, 1.0, 1.608195258957419E9, 2020-12-17 14:39:18.957
16.0, 40473.17578125, 32312.3515625, 29068.64453125, 21424.01171875, 27892.181640625, 34042.375, 33861.90625, 27037.138671875, 0.0, 0.0, 0.0, 193.0, 0.0, 1.0, 1.0, 0.0, 0.0, 1.0, 1.0, 256.0, 1.0, 1.608195258957435E9, 2020-12-17 14:39:18.957
17.0, 40323.9765625, 32167.802734375, 28933.728515625, 21324.435546875, 27805.658203125, 33903.9296875, 33769.91015625, 26932.15234375, 0.0, 0.0, 0.0, 193.0, 0.0, 1.0, 1.0, 0.0, 0.0, 1.0, 1.0, 256.0, 1.0, 1.608195258957442E9, 2020-12-17 14:39:18.957
18.0, 40260.7421875, 32079.06640625, 28894.255859375, 21280.24609375, 27777.697265625, 33841.79296875, 33753.79296875, 26877.078125, 0.0, 0.0, 0.0, 193.0, 0.0, 1.0, 1.0, 0.0, 0.0, 1.0, 1.0, 256.0, 1.0, 1.608195258957447E9, 2020-12-17 14:39:18.957
19.0, 40313.78515625, 32180.119140625, 29046.314453125, 21433.6015625, 27853.693359375, 33974.73828125, 33883.76953125, 26976.119140625, 0.0, 0.0, 0.0, 193.0, 0.0, 1.0, 1.0, 0.0, 0.0, 1.0, 1.0, 256.0, 1.0, 1.608195258957452E9, 2020-12-17 14:39:18.957
20.0, 40437.96875, 32335.08203125, 29160.107421875, 21546.455078125, 27943.970703125, 34122.3515625, 33952.43359375, 27092.078125, 0.0, 0.0, 0.0, 193.0, 0.0, 1.0, 1.0, 0.0, 0.0, 1.0, 1.0, 256.0, 1.0, 1.608195258957457E9, 2020-12-17 14:39:18.957
21.0, 40432.4921875, 32291.36328125, 29093.521484375, 21477.41015625, 27896.18359375, 34066.24609375, 33883.4765625, 27042.994140625, 0.0, 0.0, 0.0, 193.0, 0.0, 1.0, 1.0, 0.0, 0.0, 1.0, 1.0, 256.0, 1.0, 1.608195258957462E9, 2020-12-17 14:39:18.957
22.0, 40328.8046875, 32104.009765625, 28937.818359375, 21303.513671875, 27808.900390625, 33924.0, 33795.94921875, 26935.9296875, 0.0, 0.0, 0.0, 193.0, 0.0, 1.0, 1.0, 0.0, 0.0, 1.0, 1.0, 256.0, 1.0, 1.608195258957467E9, 2020-12-17 14:39:18.957
23.0, 40257.74609375, 31977.544921875, 28871.30078125, 21260.28515625, 27782.970703125, 33883.07421875, 33773.88671875, 26884.05078125, 0.0, 0.0, 0.0, 193.0, 0.0, 1.0, 1.0, 0.0, 0.0, 1.0, 1.0, 256.0, 1.0, 1.608195258957472E9, 2020-12-17 14:39:18.957
24.0, 40362.66796875, 32117.2421875, 28978.587890625, 21369.630859375, 27865.494140625, 33990.9453125, 33835.30859375, 26972.384765625, 0.0, 0.0, 0.0, 193.0, 0.0, 1.0, 1.0, 0.0, 0.0, 1.0, 1.0, 256.0, 1.0, 1.608195258957479E9, 2020-12-17 14:39:18.957
25.0, 40473.64453125, 32247.396484375, 29134.4921875, 21553.16015625, 27963.349609375, 34139.203125, 33976.50390625, 27094.58203125, 0.0, 0.0, 0.0, 193.0, 0.0, 1.0, 1.0, 0.0, 0.0, 1.0, 1.0, 256.0, 1.0, 1.608195258957483E9, 2020-12-17 14:39:18.957
26.0, 40441.8359375, 32179.55859375, 29083.642578125, 21546.87890625, 27947.345703125, 34087.4375, 33942.95703125, 27064.4296875, 0.0, 0.0, 0.0, 193.0, 0.0, 1.0, 1.0, 0.0, 0.0, 1.0, 1.0, 256.0, 1.0, 1.608195258957488E9, 2020-12-17 14:39:18.957
27.0, 40330.99609375, 32035.30078125, 28924.453125, 21324.525390625, 27844.505859375, 33963.49609375, 33804.8203125, 26938.947265625, 0.0, 0.0, 0.0, 193.0, 0.0, 1.0, 1.0, 0.0, 0.0, 1.0, 1.0, 256.0, 1.0, 1.608195258957492E9, 2020-12-17 14:39:18.957
28.0, 40233.20703125, 31981.724609375, 28880.15234375, 21237.353515625, 27782.033203125, 33857.99609375, 33741.34375, 26873.970703125, 0.0, 0.0, 0.0, 193.0, 0.0, 1.0, 1.0, 0.0, 0.0, 1.0, 1.0, 256.0, 1.0, 1.608195258957496E9, 2020-12-17 14:39:18.957
29.0, 40356.0078125, 32050.166015625, 28979.83984375, 21485.92578125, 27869.986328125, 33980.640625, 33841.96875, 26966.171875, 0.0, 0.0, 0.0, 193.0, 0.0, 1.0, 1.0, 0.0, 0.0, 1.0, 1.0, 256.0, 1.0, 1.6081952589575E9, 2020-12-17 14:39:18.957
30.0, 40489.984375, 32158.66015625, 29069.359375, 21534.49609375, 27970.771484375, 34110.01171875, 33954.51171875, 27084.748046875, 0.0, 0.0, 0.0, 193.0, 0.0, 1.0, 1.0, 0.0, 0.0, 1.0, 1.0, 256.0, 1.0, 1.608195259016705E9, 2020-12-17 14:39:19.016
31.0, 40398.1171875, 32107.162109375, 29036.8828125, 21368.69140625, 27919.271484375, 34061.28515625, 33927.98046875, 27059.6015625, 0.0, 0.0, 0.0, 193.0, 0.0, 1.0, 1.0, 0.0, 0.0, 1.0, 1.0, 256.0, 1.0, 1.608195259016722E9, 2020-12-17 14:39:19.016
32.0, 40259.9140625, 31983.35546875, 28923.134765625, 21302.240234375, 27802.619140625, 33944.25390625, 33837.07421875, 26952.357421875, 0.0, 0.0, 0.0, 193.0, 0.0, 1.0, 1.0, 0.0, 0.0, 1.0, 1.0, 256.0, 1.0, 1.608195259016731E9, 2020-12-17 14:39:19.016
33.0, 40251.421875, 31876.1796875, 28838.890625, 21218.46484375, 27777.13671875, 33874.24609375, 33768.4765625, 26881.7265625, 0.0, 0.0, 0.0, 193.0, 0.0, 1.0, 1.0, 0.0, 0.0, 1.0, 1.0, 256.0, 1.0, 1.608195259016739E9, 2020-12-17 14:39:19.016
34.0, 40348.67578125, 31971.666015625, 28975.2578125, 21532.3515625, 27889.455078125, 34002.1640625, 33862.84765625, 26969.658203125, 0.0, 0.0, 0.0, 193.0, 0.0, 1.0, 1.0, 0.0, 0.0, 1.0, 1.0, 256.0, 1.0, 1.608195259016747E9, 2020-12-17 14:39:19.016
35.0, 40434.39453125, 32076.271484375, 29118.466796875, 21731.1484375, 27975.353515625, 34129.546875, 33986.02734375, 27105.22265625, 0.0, 0.0, 0.0, 193.0, 0.0, 1.0, 1.0, 0.0, 0.0, 1.0, 1.0, 256.0, 1.0, 1.608195259016755E9, 2020-12-17 14:39:19.016
36.0, 40404.01953125, 32016.681640625, 29064.419921875, 21541.359375, 27916.076171875, 34058.3359375, 33948.296875, 27070.845703125, 0.0, 0.0, 0.0, 193.0, 0.0, 1.0, 1.0, 0.0, 0.0, 1.0, 1.0, 256.0, 1.0, 1.608195259016763E9, 2020-12-17 14:39:19.016
37.0, 40332.55859375, 31857.73828125, 28905.07421875, 21315.2265625, 27840.34765625, 33958.24609375, 33838.70703125, 26962.08203125, 0.0, 0.0, 0.0, 193.0, 0.0, 1.0, 1.0, 0.0, 0.0, 1.0, 1.0, 256.0, 1.0, 1.608195259016772E9, 2020-12-17 14:39:19.016
38.0, 40278.37890625, 31718.533203125, 28781.9609375, 21178.455078125, 27818.66796875, 33902.453125, 33765.01171875, 26896.1875, 0.0, 0.0, 0.0, 193.0, 0.0, 1.0, 1.0, 0.0, 0.0, 1.0, 1.0, 256.0, 1.0, 1.60819525901678E9, 2020-12-17 14:39:19.016
39.0, 40345.43359375, 31812.25390625, 28912.8515625, 21398.017578125, 27894.1484375, 33960.74609375, 33867.2734375, 26978.912109375, 0.0, 0.0, 0.0, 193.0, 0.0, 1.0, 1.0, 0.0, 0.0, 1.0, 1.0, 256.0, 1.0, 1.608195259016788E9, 2020-12-17 14:39:19.016
40.0, 40519.33203125, 31977.388671875, 29099.958984375, 21556.625, 27981.1875, 34124.98828125, 33983.12109375, 27107.61328125, 0.0, 0.0, 0.0, 193.0, 0.0, 1.0, 1.0, 0.0, 0.0, 1.0, 1.0, 256.0, 1.0, 1.608195259016796E9, 2020-12-17 14:39:19.016
41.0, 40483.9921875, 31881.498046875, 29022.978515625, 21414.244140625, 27934.359375, 34077.37890625, 33942.53125, 27086.1328125, 0.0, 0.0, 0.0, 193.0, 0.0, 1.0, 1.0, 0.0, 0.0, 1.0, 1.0, 256.0, 1.0, 1.608195259016805E9, 2020-12-17 14:39:19.016
42.0, 40273.57421875, 31738.0234375, 28877.22265625, 21255.189453125, 27838.939453125, 33984.23828125, 33870.53515625, 26980.140625, 0.0, 0.0, 0.0, 193.0, 0.0, 1.0, 1.0, 0.0, 0.0, 1.0, 1.0, 256.0, 1.0, 1.608195259016813E9, 2020-12-17 14:39:19.016
43.0, 40207.96875, 31661.19921875, 28823.220703125, 21235.228515625, 27811.0234375, 33933.92578125, 33818.61328125, 26915.58984375, 0.0, 0.0, 0.0, 193.0, 0.0, 1.0, 1.0, 0.0, 0.0, 1.0, 1.0, 256.0, 1.0, 1.608195259016822E9, 2020-12-17 14:39:19.016
44.0, 40340.42578125, 31739.9453125, 28929.2578125, 21439.859375, 27885.6328125, 33982.5390625, 33837.8125, 26970.57421875, 0.0, 0.0, 0.0, 193.0, 0.0, 1.0, 1.0, 0.0, 0.0, 1.0, 1.0, 256.0, 1.0, 1.608195259016831E9, 2020-12-17 14:39:19.016
45.0, 40471.83203125, 31870.3671875, 29062.20703125, 21507.384765625, 27957.515625, 34105.765625, 33969.59765625, 27109.22265625, 0.0, 0.0, 0.0, 193.0, 0.0, 1.0, 1.0, 0.0, 0.0, 1.0, 1.0, 256.0, 1.0, 1.608195259076509E9, 2020-12-17 14:39:19.076
46.0, 40444.2734375, 31796.607421875, 29007.892578125, 21409.037109375, 27923.251953125, 34082.96875, 33944.9453125, 27084.3671875, 0.0, 0.0, 0.0, 193.0, 0.0, 1.0, 1.0, 0.0, 0.0, 1.0, 1.0, 256.0, 1.0, 1.608195259076513E9, 2020-12-17 14:39:19.076
47.0, 40293.84765625, 31640.30078125, 28868.70703125, 21303.134765625, 27820.767578125, 33924.73828125, 33826.92578125, 26960.6953125, 0.0, 0.0, 0.0, 193.0, 0.0, 1.0, 1.0, 0.0, 0.0, 1.0, 1.0, 256.0, 1.0, 1.608195259076514E9, 2020-12-17 14:39:19.076
48.0, 40281.28515625, 31520.294921875, 28781.826171875, 21294.39453125, 27787.75390625, 33837.30078125, 33776.79296875, 26891.60546875, 0.0, 0.0, 0.0, 193.0, 0.0, 1.0, 1.0, 0.0, 0.0, 1.0, 1.0, 256.0, 1.0, 1.608195259076516E9, 2020-12-17 14:39:19.076
49.0, 40412.6015625, 31608.673828125, 28862.873046875, 21386.3046875, 27891.4453125, 33961.10546875, 33841.61328125, 26968.67578125, 0.0, 0.0, 0.0, 193.0, 0.0, 1.0, 1.0, 0.0, 0.0, 1.0, 1.0, 256.0, 1.0, 1.608195259076517E9, 2020-12-17 14:39:19.076
50.0, 40483.1640625, 31768.041015625, 29026.064453125, 21477.25390625, 27946.318359375, 34076.23828125, 33948.1171875, 27094.4921875, 0.0, 0.0, 0.0, 193.0, 0.0, 1.0, 1.0, 0.0, 0.0, 1.0, 1.0, 256.0, 1.0, 1.608195259076518E9, 2020-12-17 14:39:19.076
51.0, 40468.2578125, 31733.552734375, 29008.853515625, 21424.236328125, 27915.517578125, 34046.578125, 33958.17578125, 27076.25390625, 0.0, 0.0, 0.0, 193.0, 0.0, 1.0, 1.0, 0.0, 0.0, 1.0, 1.0, 256.0, 1.0, 1.60819525907652E9, 2020-12-17 14:39:19.076
52.0, 40270.98046875, 31574.095703125, 28873.9375, 21298.037109375, 27816.275390625, 33938.73046875, 33864.94921875, 26963.9140625, 0.0, 0.0, 0.0, 193.0, 0.0, 1.0, 1.0, 0.0, 0.0, 1.0, 1.0, 256.0, 1.0, 1.608195259076521E9, 2020-12-17 14:39:19.076
53.0, 40220.3515625, 31394.857421875, 28779.076171875, 21240.03515625, 27773.47265625, 33847.4921875, 33759.60546875, 26881.16796875, 0.0, 0.0, 0.0, 193.0, 0.0, 1.0, 1.0, 0.0, 0.0, 1.0, 1.0, 256.0, 1.0, 1.608195259076528E9, 2020-12-17 14:39:19.076
54.0, 40345.76953125, 31461.330078125, 28857.888671875, 21348.75390625, 27866.56640625, 33977.17578125, 33844.65234375, 26968.67578125, 0.0, 0.0, 0.0, 193.0, 0.0, 1.0, 1.0, 0.0, 0.0, 1.0, 1.0, 256.0, 1.0, 1.608195259076529E9, 2020-12-17 14:39:19.076
55.0, 40484.23828125, 31610.41796875, 28990.63671875, 21500.09765625, 27966.033203125, 34106.99609375, 33959.29296875, 27106.294921875, 0.0, 0.0, 0.0, 193.0, 0.0, 1.0, 1.0, 0.0, 0.0, 1.0, 1.0, 256.0, 1.0, 1.60819525907653E9, 2020-12-17 14:39:19.076
56.0, 40520.37890625, 31599.44140625, 28984.490234375, 21368.154296875, 27908.208984375, 34022.125, 33910.859375, 27076.208984375, 0.0, 0.0, 0.0, 193.0, 0.0, 1.0, 1.0, 0.0, 0.0, 1.0, 1.0, 256.0, 1.0, 1.608195259076532E9, 2020-12-17 14:39:19.076
57.0, 40409.78515625, 31453.462890625, 28858.537109375, 21231.048828125, 27828.412109375, 33904.8671875, 33838.86328125, 26975.15625, 0.0, 0.0, 0.0, 193.0, 0.0, 1.0, 1.0, 0.0, 0.0, 1.0, 1.0, 256.0, 1.0, 1.608195259076533E9, 2020-12-17 14:39:19.076
58.0, 40284.50390625, 31302.8125, 28758.759765625, 21172.8671875, 27793.857421875, 33846.0625, 33761.6171875, 26892.76953125, 0.0, 0.0, 0.0, 193.0, 0.0, 1.0, 1.0, 0.0, 0.0, 1.0, 1.0, 256.0, 1.0, 1.608195259076535E9, 2020-12-17 14:39:19.076
59.0, 40349.1875, 31371.857421875, 28853.642578125, 21356.443359375, 27869.205078125, 33955.29296875, 33841.30078125, 26971.08984375, 0.0, 0.0, 0.0, 193.0, 0.0, 1.0, 1.0, 0.0, 0.0, 1.0, 1.0, 256.0, 1.0, 1.608195259076536E9, 2020-12-17 14:39:19.076
60.0, 40488.41796875, 31496.267578125, 28986.8359375, 21608.66015625, 27964.78125, 34145.484375, 33968.9296875, 27102.673828125, 0.0, 0.0, 0.0, 193.0, 0.0, 1.0, 1.0, 0.0, 0.0, 1.0, 1.0, 256.0, 1.0, 1.608195259136951E9, 2020-12-17 14:39:19.136
61.0, 40520.6953125, 31467.923828125, 28977.828125, 21458.232421875, 27924.234375, 34088.93359375, 33925.23046875, 27072.455078125, 0.0, 0.0, 0.0, 193.0, 0.0, 1.0, 1.0, 0.0, 0.0, 1.0, 1.0, 256.0, 1.0, 1.608195259136957E9, 2020-12-17 14:39:19.136
62.0, 40378.89453125, 31312.490234375, 28839.3828125, 21173.359375, 27820.0078125, 33910.0078125, 33838.28125, 26963.1328125, 0.0, 0.0, 0.0, 193.0, 0.0, 1.0, 1.0, 0.0, 0.0, 1.0, 1.0, 256.0, 1.0, 1.608195259136959E9, 2020-12-17 14:39:19.136
63.0, 40247.17578125, 31222.078125, 28753.216796875, 21206.57421875, 27777.16015625, 33842.6171875, 33773.328125, 26884.72265625, 0.0, 0.0, 0.0, 193.0, 0.0, 1.0, 1.0, 0.0, 0.0, 1.0, 1.0, 256.0, 1.0, 1.608195259136961E9, 2020-12-17 14:39:19.136
64.0, 40384.50390625, 31318.390625, 28872.775390625, 21348.6875, 27842.962890625, 33932.875, 33823.12890625, 26944.400390625, 0.0, 0.0, 0.0, 193.0, 0.0, 1.0, 1.0, 0.0, 0.0, 1.0, 1.0, 256.0, 1.0, 1.608195259136963E9, 2020-12-17 14:39:19.136
65.0, 40577.109375, 31459.1171875, 29020.341796875, 21359.416015625, 27933.95703125, 34062.73828125, 33945.546875, 27075.76171875, 0.0, 0.0, 0.0, 193.0, 0.0, 1.0, 1.0, 0.0, 0.0, 1.0, 1.0, 256.0, 1.0, 1.608195259136964E9, 2020-12-17 14:39:19.136
66.0, 40487.03125, 31363.36328125, 28954.13671875, 21321.060546875, 27876.06640625, 33970.60546875, 33893.53515625, 27052.8515625, 0.0, 0.0, 0.0, 193.0, 0.0, 1.0, 1.0, 0.0, 0.0, 1.0, 1.0, 256.0, 1.0, 1.608195259136966E9, 2020-12-17 14:39:19.136
67.0, 40401.46875, 31168.25390625, 28835.58203125, 21236.50390625, 27803.06640625, 33858.04296875, 33790.671875, 26933.380859375, 0.0, 0.0, 0.0, 193.0, 0.0, 1.0, 1.0, 0.0, 0.0, 1.0, 1.0, 256.0, 1.0, 1.608195259136968E9, 2020-12-17 14:39:19.136
68.0, 40444.00390625, 31071.359375, 28752.701171875, 21119.40234375, 27763.63671875, 33759.42578125, 33735.171875, 26855.708984375, 0.0, 0.0, 0.0, 193.0, 0.0, 1.0, 1.0, 0.0, 0.0, 1.0, 1.0, 256.0, 1.0, 1.60819525913697E9, 2020-12-17 14:39:19.136
69.0, 40435.01953125, 31155.0234375, 28880.107421875, 21332.2578125, 27834.1796875, 33895.01171875, 33816.734375, 26933.158203125, 0.0, 0.0, 0.0, 193.0, 0.0, 1.0, 1.0, 0.0, 0.0, 1.0, 1.0, 256.0, 1.0, 1.608195259136972E9, 2020-12-17 14:39:19.136
70.0, 40512.04296875, 31314.255859375, 29076.802734375, 21506.53515625, 27937.130859375, 34092.64453125, 33947.62890625, 27080.947265625, 0.0, 0.0, 0.0, 193.0, 0.0, 1.0, 1.0, 0.0, 0.0, 1.0, 1.0, 256.0, 1.0, 1.608195259136974E9, 2020-12-17 14:39:19.136
71.0, 40541.546875, 31206.9453125, 28996.58203125, 21365.271484375, 27886.6171875, 34022.39453125, 33917.83203125, 27053.119140625, 0.0, 0.0, 0.0, 193.0, 0.0, 1.0, 1.0, 0.0, 0.0, 1.0, 1.0, 256.0, 1.0, 1.608195259136976E9, 2020-12-17 14:39:19.136
72.0, 40428.671875, 30998.3359375, 28805.1171875, 21225.57421875, 27796.986328125, 33863.0703125, 33829.3203125, 26944.1328125, 0.0, 0.0, 0.0, 193.0, 0.0, 1.0, 1.0, 0.0, 0.0, 1.0, 1.0, 256.0, 1.0, 1.608195259136978E9, 2020-12-17 14:39:19.136
73.0, 40353.19140625, 30910.13671875, 28752.880859375, 21202.3046875, 27753.556640625, 33768.546875, 33697.46484375, 26842.0078125, 0.0, 0.0, 0.0, 193.0, 0.0, 1.0, 1.0, 0.0, 0.0, 1.0, 1.0, 256.0, 1.0, 1.60819525913698E9, 2020-12-17 14:39:19.136
74.0, 40440.609375, 30966.57421875, 28862.001953125, 21298.708984375, 27828.2109375, 33858.734375, 33770.69140625, 26916.640625, 0.0, 0.0, 0.0, 193.0, 0.0, 1.0, 1.0, 0.0, 0.0, 1.0, 1.0, 256.0, 1.0, 1.608195259136982E9, 2020-12-17 14:39:19.136
75.0, 40689.25, 31087.20703125, 29013.30078125, 21432.037109375, 27938.00390625, 33987.2578125, 33909.0703125, 27059.087890625, 0.0, 0.0, 0.0, 193.0, 0.0, 1.0, 1.0, 0.0, 0.0, 1.0, 1.0, 256.0, 1.0, 1.608195259197067E9, 2020-12-17 14:39:19.197
76.0, 40625.09765625, 31013.291015625, 29001.298828125, 21367.26171875, 27927.587890625, 34004.55859375, 33902.296875, 27049.119140625, 0.0, 0.0, 0.0, 193.0, 0.0, 1.0, 1.0, 0.0, 0.0, 1.0, 1.0, 256.0, 1.0, 1.608195259197077E9, 2020-12-17 14:39:19.197
77.0, 40379.54296875, 30831.48046875, 28890.298828125, 21197.23046875, 27801.009765625, 33893.71484375, 33808.3984375, 26929.693359375, 0.0, 0.0, 0.0, 193.0, 0.0, 1.0, 1.0, 0.0, 0.0, 1.0, 1.0, 256.0, 1.0, 1.608195259197092E9, 2020-12-17 14:39:19.197
78.0, 40344.16015625, 30644.0390625, 28751.5390625, 21053.017578125, 27733.283203125, 33749.65625, 33689.95703125, 26836.755859375, 0.0, 0.0, 0.0, 193.0, 0.0, 1.0, 1.0, 0.0, 0.0, 1.0, 1.0, 256.0, 1.0, 1.608195259197095E9, 2020-12-17 14:39:19.197
79.0, 40422.0546875, 30697.52734375, 28839.806640625, 21219.494140625, 27795.755859375, 33799.66015625, 33761.50390625, 26903.98828125, 0.0, 0.0, 0.0, 193.0, 0.0, 1.0, 1.0, 0.0, 0.0, 1.0, 1.0, 256.0, 1.0, 1.608195259197099E9, 2020-12-17 14:39:19.197
80.0, 40583.703125, 30797.88671875, 29002.7734375, 21434.71875, 27908.431640625, 33975.25390625, 33908.734375, 27053.1875, 0.0, 0.0, 0.0, 193.0, 0.0, 1.0, 1.0, 0.0, 0.0, 1.0, 1.0, 256.0, 1.0, 1.608195259197102E9, 2020-12-17 14:39:19.197
81.0, 40577.578125, 30738.140625, 28984.958984375, 21386.349609375, 27884.537109375, 33964.01171875, 33913.05078125, 27047.353515625, 0.0, 0.0, 0.0, 193.0, 0.0, 1.0, 1.0, 0.0, 0.0, 1.0, 1.0, 256.0, 1.0, 1.608195259197106E9, 2020-12-17 14:39:19.197
82.0, 40413.29296875, 30544.9765625, 28844.74609375, 21136.14453125, 27793.521484375, 33815.37109375, 33761.4375, 26922.4296875, 0.0, 0.0, 0.0, 193.0, 0.0, 1.0, 1.0, 0.0, 0.0, 1.0, 1.0, 256.0, 1.0, 1.608195259197109E9, 2020-12-17 14:39:19.197
83.0, 40383.921875, 30356.126953125, 28736.1171875, 21032.90234375, 27758.853515625, 33750.08203125, 33700.4609375, 26845.13671875, 0.0, 0.0, 0.0, 193.0, 0.0, 1.0, 1.0, 0.0, 0.0, 1.0, 1.0, 256.0, 1.0, 1.608195259197113E9, 2020-12-17 14:39:19.197
84.0, 40564.4140625, 30395.7109375, 28828.966796875, 21179.9765625, 27837.95703125, 33834.125, 33766.734375, 26902.9609375, 0.0, 0.0, 0.0, 193.0, 0.0, 1.0, 1.0, 0.0, 0.0, 1.0, 1.0, 256.0, 1.0, 1.608195259197116E9, 2020-12-17 14:39:19.197
85.0, 40618.05859375, 30517.974609375, 28993.787109375, 21347.7265625, 27918.51171875, 33973.48828125, 33880.4375, 27035.484375, 0.0, 0.0, 0.0, 193.0, 0.0, 1.0, 1.0, 0.0, 0.0, 1.0, 1.0, 256.0, 1.0, 1.60819525919712E9, 2020-12-17 14:39:19.197
86.0, 40547.6953125, 30445.064453125, 28977.828125, 21347.63671875, 27903.671875, 33973.51171875, 33882.29296875, 27035.595703125, 0.0, 0.0, 0.0, 193.0, 0.0, 1.0, 1.0, 0.0, 0.0, 1.0, 1.0, 256.0, 1.0, 1.608195259197123E9, 2020-12-17 14:39:19.197
87.0, 40420.4453125, 30266.474609375, 28852.5703125, 21205.904296875, 27800.13671875, 33819.39453125, 33791.54296875, 26919.0546875, 0.0, 0.0, 0.0, 193.0, 0.0, 1.0, 1.0, 0.0, 0.0, 1.0, 1.0, 256.0, 1.0, 1.608195259197127E9, 2020-12-17 14:39:19.197
88.0, 40350.953125, 30132.36328125, 28779.634765625, 21059.1640625, 27723.962890625, 33711.75, 33734.28125, 26843.28125, 0.0, 0.0, 0.0, 193.0, 0.0, 1.0, 1.0, 0.0, 0.0, 1.0, 1.0, 256.0, 1.0, 1.60819525919713E9, 2020-12-17 14:39:19.197
89.0, 40453.078125, 30128.048828125, 28845.6171875, 21149.509765625, 27819.181640625, 33845.5234375, 33797.82421875, 26920.73046875, 0.0, 0.0, 0.0, 193.0, 0.0, 1.0, 1.0, 0.0, 0.0, 1.0, 1.0, 256.0, 1.0, 1.608195259197134E9, 2020-12-17 14:39:19.197
90.0, 40644.25390625, 30250.201171875, 28977.203125, 21350.228515625, 27942.673828125, 34019.66796875, 33893.1796875, 27061.94921875, 0.0, 0.0, 0.0, 193.0, 0.0, 1.0, 1.0, 0.0, 0.0, 1.0, 1.0, 256.0, 1.0, 1.608195259257435E9, 2020-12-17 14:39:19.257
91.0, 40605.8984375, 30189.29296875, 28941.23828125, 21216.296875, 27899.490234375, 33975.85546875, 33885.66796875, 27045.87890625, 0.0, 0.0, 0.0, 193.0, 0.0, 1.0, 1.0, 0.0, 0.0, 1.0, 1.0, 256.0, 1.0, 1.608195259257451E9, 2020-12-17 14:39:19.257
92.0, 40426.79296875, 30013.853515625, 28810.548828125, 21176.48828125, 27783.171875, 33788.640625, 33773.41796875, 26922.7421875, 0.0, 0.0, 0.0, 193.0, 0.0, 1.0, 1.0, 0.0, 0.0, 1.0, 1.0, 256.0, 1.0, 1.608195259257454E9, 2020-12-17 14:39:19.257
93.0, 40340.046875, 29889.556640625, 28729.388671875, 21174.9921875, 27740.66015625, 33696.01171875, 33691.34375, 26829.490234375, 0.0, 0.0, 0.0, 193.0, 0.0, 1.0, 1.0, 0.0, 0.0, 1.0, 1.0, 256.0, 1.0, 1.608195259257456E9, 2020-12-17 14:39:19.257
94.0, 40438.86328125, 29970.58203125, 28829.412109375, 21240.951171875, 27801.970703125, 33802.69921875, 33779.07421875, 26905.62109375, 0.0, 0.0, 0.0, 193.0, 0.0, 1.0, 1.0, 0.0, 0.0, 1.0, 1.0, 256.0, 1.0, 1.608195259257458E9, 2020-12-17 14:39:19.257
95.0, 40589.46875, 30104.04296875, 28981.5390625, 21359.86328125, 27905.861328125, 33963.31640625, 33905.3828125, 27046.794921875, 0.0, 0.0, 0.0, 193.0, 0.0, 1.0, 1.0, 0.0, 0.0, 1.0, 1.0, 256.0, 1.0, 1.608195259257459E9, 2020-12-17 14:39:19.257
96.0, 40576.7734375, 30047.248046875, 28940.43359375, 21298.57421875, 27897.3671875, 33912.421875, 33873.48828125, 27033.62890625, 0.0, 0.0, 0.0, 193.0, 0.0, 1.0, 1.0, 0.0, 0.0, 1.0, 1.0, 256.0, 1.0, 1.608195259257461E9, 2020-12-17 14:39:19.257
97.0, 40449.48046875, 29878.759765625, 28790.365234375, 21119.55859375, 27798.595703125, 33782.55859375, 33764.85546875, 26914.896484375, 0.0, 0.0, 0.0, 193.0, 0.0, 1.0, 1.0, 0.0, 0.0, 1.0, 1.0, 256.0, 1.0, 1.608195259257463E9, 2020-12-17 14:39:19.257
98.0, 40350.4609375, 29753.3671875, 28687.546875, 21003.240234375, 27732.322265625, 33688.14453125, 33689.1953125, 26833.021484375, 0.0, 0.0, 0.0, 193.0, 0.0, 1.0, 1.0, 0.0, 0.0, 1.0, 1.0, 256.0, 1.0, 1.608195259257466E9, 2020-12-17 14:39:19.257
99.0, 40425.49609375, 29830.50390625, 28778.115234375, 21086.970703125, 27799.109375, 33790.31640625, 33760.83203125, 26899.318359375, 0.0, 0.0, 0.0, 193.0, 0.0, 1.0, 1.0, 0.0, 0.0, 1.0, 1.0, 256.0, 1.0, 1.608195259257468E9, 2020-12-17 14:39:19.257
100.0, 40581.98046875, 29989.646484375, 28937.751953125, 21260.083984375, 27911.896484375, 33930.796875, 33871.453125, 27032.712890625, 0.0, 0.0, 0.0, 193.0, 0.0, 1.0, 1.0, 0.0, 0.0, 1.0, 1.0, 256.0, 1.0, 1.608195259257491E9, 2020-12-17 14:39:19.257
101.0, 40568.953125, 29958.890625, 28917.076171875, 21252.193359375, 27896.697265625, 33924.89453125, 33877.44140625, 27037.697265625, 0.0, 0.0, 0.0, 193.0, 0.0, 1.0, 1.0, 0.0, 0.0, 1.0, 1.0, 256.0, 1.0, 1.608195259257493E9, 2020-12-17 14:39:19.257
102.0, 40449.4140625, 29809.603515625, 28774.80859375, 21089.697265625, 27812.7890625, 33803.078125, 33778.08984375, 26931.302734375, 0.0, 0.0, 0.0, 193.0, 0.0, 1.0, 1.0, 0.0, 0.0, 1.0, 1.0, 256.0, 1.0, 1.608195259257495E9, 2020-12-17 14:39:19.257
103.0, 40377.15234375, 29711.79296875, 28684.171875, 20967.12109375, 27768.509765625, 33718.3671875, 33696.68359375, 26840.107421875, 0.0, 0.0, 0.0, 193.0, 0.0, 1.0, 1.0, 0.0, 0.0, 1.0, 1.0, 256.0, 1.0, 1.608195259257497E9, 2020-12-17 14:39:19.257
104.0, 40477.9140625, 29799.92578125, 28779.3671875, 21055.25390625, 27831.810546875, 33804.0390625, 33773.328125, 26910.1796875, 0.0, 0.0, 0.0, 193.0, 0.0, 1.0, 1.0, 0.0, 0.0, 1.0, 1.0, 256.0, 1.0, 1.608195259257499E9, 2020-12-17 14:39:19.257
105.0, 40575.9921875, 29964.099609375, 28929.705078125, 21205.009765625, 27915.31640625, 33944.1640625, 33890.765625, 27048.248046875, 0.0, 0.0, 0.0, 193.0, 0.0, 1.0, 1.0, 0.0, 0.0, 1.0, 1.0, 256.0, 1.0, 1.608195259316215E9, 2020-12-17 14:39:19.316
106.0, 40523.8671875, 29938.283203125, 28899.955078125, 21214.353515625, 27896.49609375, 33926.953125, 33873.7109375, 27045.095703125, 0.0, 0.0, 0.0, 193.0, 0.0, 1.0, 1.0, 0.0, 0.0, 1.0, 1.0, 256.0, 1.0, 1.608195259316222E9, 2020-12-17 14:39:19.316
107.0, 40418.30078125, 29797.2890625, 28771.4765625, 21098.302734375, 27826.69140625, 33813.47265625, 33787.4765625, 26944.154296875, 0.0, 0.0, 0.0, 193.0, 0.0, 1.0, 1.0, 0.0, 0.0, 1.0, 1.0, 256.0, 1.0, 1.608195259316224E9, 2020-12-17 14:39:19.316
108.0, 40334.34765625, 29694.626953125, 28670.693359375, 20978.7421875, 27783.083984375, 33736.91796875, 33706.83203125, 26860.11328125, 0.0, 0.0, 0.0, 193.0, 0.0, 1.0, 1.0, 0.0, 0.0, 1.0, 1.0, 256.0, 1.0, 1.608195259316226E9, 2020-12-17 14:39:19.316
109.0, 40388.9765625, 29779.318359375, 28747.26953125, 21046.423828125, 27830.78125, 33803.0546875, 33762.48828125, 26915.455078125, 0.0, 0.0, 0.0, 193.0, 0.0, 1.0, 1.0, 0.0, 0.0, 1.0, 1.0, 256.0, 1.0, 1.608195259316228E9, 2020-12-17 14:39:19.316
110.0, 40529.5234375, 29951.203125, 28906.771484375, 21192.359375, 27912.9921875, 33929.6796875, 33881.19921875, 27053.09765625, 0.0, 0.0, 0.0, 193.0, 0.0, 1.0, 1.0, 0.0, 0.0, 1.0, 1.0, 256.0, 1.0, 1.60819525931623E9, 2020-12-17 14:39:19.316
111.0, 40529.8125, 29944.51953125, 28898.546875, 21165.111328125, 27898.84375, 33917.20703125, 33892.0390625, 27061.94921875, 0.0, 0.0, 0.0, 193.0, 0.0, 1.0, 1.0, 0.0, 0.0, 1.0, 1.0, 256.0, 1.0, 1.608195259316233E9, 2020-12-17 14:39:19.316
112.0, 40405.15625, 29807.123046875, 28760.14453125, 21007.93359375, 27821.86328125, 33803.94921875, 33790.65234375, 26944.9375, 0.0, 0.0, 0.0, 193.0, 0.0, 1.0, 1.0, 0.0, 0.0, 1.0, 1.0, 256.0, 1.0, 1.608195259316235E9, 2020-12-17 14:39:19.316
113.0, 40313.0, 29693.978515625, 28644.296875, 20906.837890625, 27764.822265625, 33710.96875, 33705.71484375, 26855.6875, 0.0, 0.0, 0.0, 193.0, 0.0, 1.0, 1.0, 0.0, 0.0, 1.0, 1.0, 256.0, 1.0, 1.608195259316237E9, 2020-12-17 14:39:19.316
114.0, 40380.59375, 29783.005859375, 28729.90234375, 21016.31640625, 27828.94921875, 33788.2578125, 33768.23046875, 26920.841796875, 0.0, 0.0, 0.0, 193.0, 0.0, 1.0, 1.0, 0.0, 0.0, 1.0, 1.0, 256.0, 1.0, 1.608195259316239E9, 2020-12-17 14:39:19.316
115.0, 40528.09375, 29968.94921875, 28904.783203125, 21195.8671875, 27947.45703125, 33961.88671875, 33906.92578125, 27072.8125, 0.0, 0.0, 0.0, 193.0, 0.0, 1.0, 1.0, 0.0, 0.0, 1.0, 1.0, 256.0, 1.0, 1.608195259316241E9, 2020-12-17 14:39:19.316
116.0, 40522.1015625, 29967.162109375, 28888.689453125, 21176.98046875, 27928.83984375, 33944.02734375, 33892.953125, 27065.458984375, 0.0, 0.0, 0.0, 193.0, 0.0, 1.0, 1.0, 0.0, 0.0, 1.0, 1.0, 256.0, 1.0, 1.608195259316243E9, 2020-12-17 14:39:19.316
117.0, 40399.859375, 29833.810546875, 28747.830078125, 21036.119140625, 27826.423828125, 33805.0, 33786.31640625, 26948.73828125, 0.0, 0.0, 0.0, 193.0, 0.0, 1.0, 1.0, 0.0, 0.0, 1.0, 1.0, 256.0, 1.0, 1.608195259316245E9, 2020-12-17 14:39:19.316
118.0, 40294.60546875, 29732.982421875, 28645.056640625, 20929.345703125, 27751.8359375, 33709.87109375, 33705.4453125, 26853.876953125, 0.0, 0.0, 0.0, 193.0, 0.0, 1.0, 1.0, 0.0, 0.0, 1.0, 1.0, 256.0, 1.0, 1.608195259316248E9, 2020-12-17 14:39:19.316
119.0, 40360.8359375, 29843.400390625, 28740.564453125, 21034.80078125, 27813.146484375, 33781.3984375, 33769.86328125, 26919.388671875, 0.0, 0.0, 0.0, 193.0, 0.0, 1.0, 1.0, 0.0, 0.0, 1.0, 1.0, 256.0, 1.0, 1.60819525931625E9, 2020-12-17 14:39:19.316
120.0, 40514.27734375, 30012.603515625, 28904.1796875, 21211.06640625, 27921.57421875, 33935.40234375, 33899.50390625, 27072.140625, 0.0, 0.0, 0.0, 193.0, 0.0, 1.0, 1.0, 0.0, 0.0, 1.0, 1.0, 256.0, 1.0, 1.608195259376512E9, 2020-12-17 14:39:19.376
121.0, 40544.51953125, 30023.33203125, 28896.513671875, 21210.888671875, 27906.263671875, 33931.421875, 33886.67578125, 27062.619140625, 0.0, 0.0, 0.0, 193.0, 0.0, 1.0, 1.0, 0.0, 0.0, 1.0, 1.0, 256.0, 1.0, 1.608195259376523E9, 2020-12-17 14:39:19.376
122.0, 40397.8046875, 29900.28515625, 28763.029296875, 21079.4609375, 27807.6484375, 33798.609375, 33783.05078125, 26944.9375, 0.0, 0.0, 0.0, 193.0, 0.0, 1.0, 1.0, 0.0, 0.0, 1.0, 1.0, 256.0, 1.0, 1.608195259376527E9, 2020-12-17 14:39:19.376
123.0, 40275.62890625, 29817.271484375, 28668.615234375, 20986.029296875, 27752.39453125, 33708.10546875, 33714.5859375, 26865.701171875, 0.0, 0.0, 0.0, 193.0, 0.0, 1.0, 1.0, 0.0, 0.0, 1.0, 1.0, 256.0, 1.0, 1.608195259376543E9, 2020-12-17 14:39:19.376
124.0, 40340.94140625, 29913.13671875, 28745.638671875, 21067.591796875, 27800.49609375, 33772.76953125, 33754.84375, 26916.818359375, 0.0, 0.0, 0.0, 193.0, 0.0, 1.0, 1.0, 0.0, 0.0, 1.0, 1.0, 256.0, 1.0, 1.608195259376547E9, 2020-12-17 14:39:19.376
125.0, 40500.109375, 30093.740234375, 28913.634765625, 21260.330078125, 27912.923828125, 33931.46484375, 33879.6328125, 27049.923828125, 0.0, 0.0, 0.0, 193.0, 0.0, 1.0, 1.0, 0.0, 0.0, 1.0, 1.0, 256.0, 1.0, 1.608195259376551E9, 2020-12-17 14:39:19.376
126.0, 40513.33984375, 30123.376953125, 28924.4296875, 21275.841796875, 27917.998046875, 33946.30859375, 33895.48046875, 27067.6484375, 0.0, 0.0, 0.0, 193.0, 0.0, 1.0, 1.0, 0.0, 0.0, 1.0, 1.0, 256.0, 1.0, 1.608195259376555E9, 2020-12-17 14:39:19.376
127.0, 40397.06640625, 29996.0625, 28785.89453125, 21126.107421875, 27817.638671875, 33815.4375, 33787.43359375, 26959.197265625, 0.0, 0.0, 0.0, 193.0, 0.0, 1.0, 1.0, 0.0, 0.0, 1.0, 1.0, 256.0, 1.0, 1.608195259376559E9, 2020-12-17 14:39:19.376
128.0, 40289.53125, 29902.38671875, 28682.71875, 21022.10546875, 27755.658203125, 33718.92578125, 33708.08203125, 26872.986328125, 0.0, 0.0, 0.0, 193.0, 0.0, 1.0, 1.0, 0.0, 0.0, 1.0, 1.0, 256.0, 1.0, 1.608195259376563E9, 2020-12-17 14:39:19.376
129.0, 40343.0625, 29998.85546875, 28759.4296875, 21124.65625, 27822.087890625, 33792.39453125, 33761.01171875, 26926.474609375, 0.0, 0.0, 0.0, 193.0, 0.0, 1.0, 1.0, 0.0, 0.0, 1.0, 1.0, 256.0, 1.0, 1.608195259376567E9, 2020-12-17 14:39:19.376
130.0, 40494.00390625, 30198.345703125, 28935.091796875, 21331.677734375, 27915.0703125, 33945.2578125, 33895.92578125, 27066.822265625, 0.0, 0.0, 0.0, 193.0, 0.0, 1.0, 1.0, 0.0, 0.0, 1.0, 1.0, 256.0, 1.0, 1.608195259376571E9, 2020-12-17 14:39:19.376
131.0, 40491.90625, 30219.646484375, 28930.666015625, 21323.763671875, 27899.8046875, 33937.4140625, 33897.73828125, 27072.41015625, 0.0, 0.0, 0.0, 193.0, 0.0, 1.0, 1.0, 0.0, 0.0, 1.0, 1.0, 256.0, 1.0, 1.608195259376576E9, 2020-12-17 14:39:19.376
132.0, 40368.859375, 30100.064453125, 28794.87890625, 21175.998046875, 27811.357421875, 33809.44921875, 33793.06640625, 26959.755859375, 0.0, 0.0, 0.0, 193.0, 0.0, 1.0, 1.0, 0.0, 0.0, 1.0, 1.0, 256.0, 1.0, 1.60819525937658E9, 2020-12-17 14:39:19.376
133.0, 40279.80859375, 30013.25, 28696.53125, 21076.263671875, 27756.953125, 33719.23828125, 33715.953125, 26873.92578125, 0.0, 0.0, 0.0, 193.0, 0.0, 1.0, 1.0, 0.0, 0.0, 1.0, 1.0, 256.0, 1.0, 1.608195259376583E9, 2020-12-17 14:39:19.376
134.0, 40334.90625, 30107.9765625, 28770.806640625, 21160.484375, 27804.4296875, 33782.78125, 33770.0859375, 26928.46484375, 0.0, 0.0, 0.0, 193.0, 0.0, 1.0, 1.0, 0.0, 0.0, 1.0, 1.0, 256.0, 1.0, 1.608195259376587E9, 2020-12-17 14:39:19.376
135.0, 40479.03125, 30305.9921875, 28940.12109375, 21342.33984375, 27908.744140625, 33940.31640625, 33897.89453125, 27064.943359375, 0.0, 0.0, 0.0, 193.0, 0.0, 1.0, 1.0, 0.0, 0.0, 1.0, 1.0, 256.0, 1.0, 1.608195259436861E9, 2020-12-17 14:39:19.436
136.0, 40487.703125, 30329.1484375, 28941.796875, 21354.900390625, 27916.90234375, 33958.0859375, 33896.015625, 27071.783203125, 0.0, 0.0, 0.0, 193.0, 0.0, 1.0, 1.0, 0.0, 0.0, 1.0, 1.0, 256.0, 1.0, 1.608195259436869E9, 2020-12-17 14:39:19.436
137.0, 40357.79296875, 30196.71484375, 28802.099609375, 21200.205078125, 27815.984375, 33833.3203125, 33793.2890625, 26963.53515625, 0.0, 0.0, 0.0, 193.0, 0.0, 1.0, 1.0, 0.0, 0.0, 1.0, 1.0, 256.0, 1.0, 1.608195259436871E9, 2020-12-17 14:39:19.436
138.0, 40255.46875, 30111.84375, 28702.74609375, 21094.771484375, 27746.76171875, 33727.75390625, 33715.4375, 26871.869140625, 0.0, 0.0, 0.0, 193.0, 0.0, 1.0, 1.0, 0.0, 0.0, 1.0, 1.0, 256.0, 1.0, 1.608195259436873E9, 2020-12-17 14:39:19.436
139.0, 40311.546875, 30199.306640625, 28770.515625, 21179.88671875, 27800.62890625, 33787.87890625, 33764.41015625, 26921.84765625, 0.0, 0.0, 0.0, 193.0, 0.0, 1.0, 1.0, 0.0, 0.0, 1.0, 1.0, 256.0, 1.0, 1.608195259436875E9, 2020-12-17 14:39:19.436
140.0, 40469.7109375, 30397.34375, 28948.548828125, 21381.96875, 27906.330078125, 33943.26953125, 33900.578125, 27067.08984375, 0.0, 0.0, 0.0, 193.0, 0.0, 1.0, 1.0, 0.0, 0.0, 1.0, 1.0, 256.0, 1.0, 1.608195259436877E9, 2020-12-17 14:39:19.436
141.0, 40477.0625, 30422.109375, 28954.380859375, 21399.58203125, 27900.138671875, 33949.75, 33903.83984375, 27072.341796875, 0.0, 0.0, 0.0, 193.0, 0.0, 1.0, 1.0, 0.0, 0.0, 1.0, 1.0, 256.0, 1.0, 1.608195259436879E9, 2020-12-17 14:39:19.436
142.0, 40348.71875, 30288.35546875, 28812.42578125, 21242.44921875, 27824.30078125, 33832.0234375, 33794.02734375, 26955.689453125, 0.0, 0.0, 0.0, 193.0, 0.0, 1.0, 1.0, 0.0, 0.0, 1.0, 1.0, 256.0, 1.0, 1.608195259436881E9, 2020-12-17 14:39:19.436
143.0, 40258.8203125, 30193.40625, 28707.953125, 21125.951171875, 27777.294921875, 33746.7734375, 33715.7265625, 26859.732421875, 0.0, 0.0, 0.0, 193.0, 0.0, 1.0, 1.0, 0.0, 0.0, 1.0, 1.0, 256.0, 1.0, 1.608195259436883E9, 2020-12-17 14:39:19.436
144.0, 40324.84765625, 30284.35546875, 28784.1953125, 21229.3515625, 27838.11328125, 33815.796875, 33765.3046875, 26904.5703125, 0.0, 0.0, 0.0, 193.0, 0.0, 1.0, 1.0, 0.0, 0.0, 1.0, 1.0, 256.0, 1.0, 1.608195259436885E9, 2020-12-17 14:39:19.436
145.0, 40472.03515625, 30470.5234375, 28952.728515625, 21432.283203125, 27950.005859375, 33975.1640625, 33902.51953125, 27056.361328125, 0.0, 0.0, 0.0, 193.0, 0.0, 1.0, 1.0, 0.0, 0.0, 1.0, 1.0, 256.0, 1.0, 1.608195259436887E9, 2020-12-17 14:39:19.436
146.0, 40491.30078125, 30495.265625, 28964.349609375, 21430.986328125, 27959.37109375, 33990.765625, 33927.890625, 27084.435546875, 0.0, 0.0, 0.0, 193.0, 0.0, 1.0, 1.0, 0.0, 0.0, 1.0, 1.0, 256.0, 1.0, 1.608195259436897E9, 2020-12-17 14:39:19.436
147.0, 40361.6171875, 30371.482421875, 28833.90625, 21292.517578125, 27865.494140625, 33877.77734375, 33836.71875, 26988.904296875, 0.0, 0.0, 0.0, 193.0, 0.0, 1.0, 1.0, 0.0, 0.0, 1.0, 1.0, 256.0, 1.0, 1.608195259436899E9, 2020-12-17 14:39:19.436
148.0, 40259.15625, 30276.46484375, 28735.9375, 21207.021484375, 27792.58203125, 33789.1328125, 33768.58984375, 26914.583984375, 0.0, 0.0, 0.0, 193.0, 0.0, 1.0, 1.0, 0.0, 0.0, 1.0, 1.0, 256.0, 1.0, 1.608195259436901E9, 2020-12-17 14:39:19.436
149.0, 40306.5625, 30354.740234375, 28805.5859375, 21278.814453125, 27836.794921875, 33855.78515625, 33825.67578125, 26984.857421875, 0.0, 0.0, 0.0, 193.0, 0.0, 1.0, 1.0, 0.0, 0.0, 1.0, 1.0, 256.0, 1.0, 1.608195259436903E9, 2020-12-17 14:39:19.436
150.0, 40457.953125, 30525.9765625, 28958.3828125, 21433.400390625, 27927.7890625, 33999.21484375, 33938.55078125, 27125.31640625, 0.0, 0.0, 0.0, 193.0, 0.0, 1.0, 1.0, 0.0, 0.0, 1.0, 1.0, 256.0, 1.0, 1.608195259497111E9, 2020-12-17 14:39:19.497
151.0, 40471.140625, 30542.541015625, 28966.49609375, 21441.357421875, 27902.77734375, 33996.95703125, 33951.671875, 27135.330078125, 0.0, 0.0, 0.0, 193.0, 0.0, 1.0, 1.0, 0.0, 0.0, 1.0, 1.0, 256.0, 1.0, 1.608195259497119E9, 2020-12-17 14:39:19.497
152.0, 40324.46875, 30405.2109375, 28818.595703125, 21292.337890625, 27785.20703125, 33837.87890625, 33821.16015625, 27010.427734375, 0.0, 0.0, 0.0, 193.0, 0.0, 1.0, 1.0, 0.0, 0.0, 1.0, 1.0, 256.0, 1.0, 1.608195259497121E9, 2020-12-17 14:39:19.497
153.0, 40226.45703125, 30300.203125, 28706.255859375, 21179.57421875, 27722.890625, 33725.2265625, 33718.4765625, 26910.359375, 0.0, 0.0, 0.0, 193.0, 0.0, 1.0, 1.0, 0.0, 0.0, 1.0, 1.0, 256.0, 1.0, 1.608195259497123E9, 2020-12-17 14:39:19.497
154.0, 40286.46875, 30370.87890625, 28766.89453125, 21240.50390625, 27778.74609375, 33783.20703125, 33751.69140625, 26946.837890625, 0.0, 0.0, 0.0, 193.0, 0.0, 1.0, 1.0, 0.0, 0.0, 1.0, 1.0, 256.0, 1.0, 1.608195259497125E9, 2020-12-17 14:39:19.497
155.0, 40444.67578125, 30558.0078125, 28939.763671875, 21422.73828125, 27893.388671875, 33947.828125, 33878.3828125, 27074.376953125, 0.0, 0.0, 0.0, 193.0, 0.0, 1.0, 1.0, 0.0, 0.0, 1.0, 1.0, 256.0, 1.0, 1.608195259497127E9, 2020-12-17 14:39:19.497
156.0, 40453.34765625, 30584.517578125, 28950.603515625, 21433.869140625, 27883.822265625, 33952.54296875, 33894.609375, 27088.703125, 0.0, 0.0, 0.0, 193.0, 0.0, 1.0, 1.0, 0.0, 0.0, 1.0, 1.0, 256.0, 1.0, 1.608195259497128E9, 2020-12-17 14:39:19.497
157.0, 40336.71484375, 30460.59765625, 28817.275390625, 21295.623046875, 27800.09375, 33832.47265625, 33793.890625, 26975.26953125, 0.0, 0.0, 0.0, 193.0, 0.0, 1.0, 1.0, 0.0, 0.0, 1.0, 1.0, 256.0, 1.0, 1.60819525949713E9, 2020-12-17 14:39:19.497
158.0, 40238.28125, 30349.666015625, 28706.3671875, 21178.27734375, 27744.03515625, 33737.5859375, 33704.0390625, 26871.19921875, 0.0, 0.0, 0.0, 193.0, 0.0, 1.0, 1.0, 0.0, 0.0, 1.0, 1.0, 256.0, 1.0, 1.608195259497131E9, 2020-12-17 14:39:19.497
159.0, 40296.88671875, 30425.6171875, 28776.953125, 21259.234375, 27812.587890625, 33814.90234375, 33758.8203125, 26924.44140625, 0.0, 0.0, 0.0, 193.0, 0.0, 1.0, 1.0, 0.0, 0.0, 1.0, 1.0, 256.0, 1.0, 1.608195259497133E9, 2020-12-17 14:39:19.497
160.0, 40459.13671875, 30622.40234375, 28959.322265625, 21453.830078125, 27933.935546875, 33991.4140625, 33907.50390625, 27076.72265625, 0.0, 0.0, 0.0, 193.0, 0.0, 1.0, 1.0, 0.0, 0.0, 1.0, 1.0, 256.0, 1.0, 1.608195259497134E9, 2020-12-17 14:39:19.497
161.0, 40465.44140625, 30648.21875, 28973.1796875, 21461.83203125, 27927.072265625, 34002.390625, 33929.34375, 27092.458984375, 0.0, 0.0, 0.0, 193.0, 0.0, 1.0, 1.0, 0.0, 0.0, 1.0, 1.0, 256.0, 1.0, 1.608195259497135E9, 2020-12-17 14:39:19.497
162.0, 40344.13671875, 30520.748046875, 28839.5390625, 21324.658203125, 27839.07421875, 33877.5078125, 33832.0234375, 26991.943359375, 0.0, 0.0, 0.0, 193.0, 0.0, 1.0, 1.0, 0.0, 0.0, 1.0, 1.0, 256.0, 1.0, 1.608195259497137E9, 2020-12-17 14:39:19.497
163.0, 40243.5546875, 30415.6484375, 28728.71875, 21212.51953125, 27771.05859375, 33766.64453125, 33739.2421875, 26895.451171875, 0.0, 0.0, 0.0, 193.0, 0.0, 1.0, 1.0, 0.0, 0.0, 1.0, 1.0, 256.0, 1.0, 1.608195259497138E9, 2020-12-17 14:39:19.497
164.0, 40290.89453125, 30478.345703125, 28782.630859375, 21286.34765625, 27811.58203125, 33808.48828125, 33759.6953125, 26921.1328125, 0.0, 0.0, 0.0, 193.0, 0.0, 1.0, 1.0, 0.0, 0.0, 1.0, 1.0, 256.0, 1.0, 1.60819525949714E9, 2020-12-17 14:39:19.497
165.0, 40437.56640625, 30654.58984375, 28947.5859375, 21472.8515625, 27920.099609375, 33972.48046875, 33889.890625, 27063.291015625, 0.0, 0.0, 0.0, 193.0, 0.0, 1.0, 1.0, 0.0, 0.0, 1.0, 1.0, 256.0, 1.0, 1.608195259556629E9, 2020-12-17 14:39:19.556
166.0, 40452.96875, 30685.234375, 28965.04296875, 21481.166015625, 27920.591796875, 33992.84375, 33917.7421875, 27097.779296875, 0.0, 0.0, 0.0, 193.0, 0.0, 1.0, 1.0, 0.0, 0.0, 1.0, 1.0, 256.0, 1.0, 1.608195259556646E9, 2020-12-17 14:39:19.556
167.0, 40353.03515625, 30576.314453125, 28849.216796875, 21355.146484375, 27855.94921875, 33884.52734375, 33841.0546875, 27012.55078125, 0.0, 0.0, 0.0, 193.0, 0.0, 1.0, 1.0, 0.0, 0.0, 1.0, 1.0, 256.0, 1.0, 1.608195259556659E9, 2020-12-17 14:39:19.556
168.0, 40270.48828125, 30477.8984375, 28741.861328125, 21242.3828125, 27792.001953125, 33780.078125, 33743.62109375, 26905.755859375, 0.0, 0.0, 0.0, 193.0, 0.0, 1.0, 1.0, 0.0, 0.0, 1.0, 1.0, 256.0, 1.0, 1.608195259556666E9, 2020-12-17 14:39:19.556
169.0, 40311.48046875, 30542.607421875, 28798.76953125, 21299.6015625, 27825.6640625, 33826.19140625, 33770.37890625, 26927.2578125, 0.0, 0.0, 0.0, 193.0, 0.0, 1.0, 1.0, 0.0, 0.0, 1.0, 1.0, 256.0, 1.0, 1.608195259556673E9, 2020-12-17 14:39:19.556
170.0, 40449.4140625, 30718.1796875, 28960.931640625, 21472.3359375, 27926.55859375, 33978.16015625, 33890.2265625, 27057.322265625, 0.0, 0.0, 0.0, 193.0, 0.0, 1.0, 1.0, 0.0, 0.0, 1.0, 1.0, 256.0, 1.0, 1.60819525955671E9, 2020-12-17 14:39:19.556
171.0, 40457.75, 30746.34375, 28977.001953125, 21489.099609375, 27930.314453125, 33997.984375, 33910.41015625, 27089.955078125, 0.0, 0.0, 0.0, 193.0, 0.0, 1.0, 1.0, 0.0, 0.0, 1.0, 1.0, 256.0, 1.0, 1.608195259556719E9, 2020-12-17 14:39:19.556
172.0, 40336.87109375, 30626.896484375, 28852.033203125, 21351.302734375, 27841.98046875, 33881.421875, 33814.56640625, 26989.751953125, 0.0, 0.0, 0.0, 193.0, 0.0, 1.0, 1.0, 0.0, 0.0, 1.0, 1.0, 256.0, 1.0, 1.608195259556727E9, 2020-12-17 14:39:19.556
173.0, 40226.74609375, 30517.70703125, 28738.44140625, 21224.298828125, 27767.056640625, 33774.578125, 33731.15234375, 26892.970703125, 0.0, 0.0, 0.0, 193.0, 0.0, 1.0, 1.0, 0.0, 0.0, 1.0, 1.0, 256.0, 1.0, 1.608195259556736E9, 2020-12-17 14:39:19.556
174.0, 40267.5390625, 30591.6015625, 28802.658203125, 21290.349609375, 27811.783203125, 33830.32421875, 33786.0703125, 26937.181640625, 0.0, 0.0, 0.0, 193.0, 0.0, 1.0, 1.0, 0.0, 0.0, 1.0, 1.0, 256.0, 1.0, 1.608195259556744E9, 2020-12-17 14:39:19.556
175.0, 40416.2890625, 30777.748046875, 28964.529296875, 21473.07421875, 27929.263671875, 33989.9375, 33901.40234375, 27076.90234375, 0.0, 0.0, 0.0, 193.0, 0.0, 1.0, 1.0, 0.0, 0.0, 1.0, 1.0, 256.0, 1.0, 1.608195259556756E9, 2020-12-17 14:39:19.556
176.0, 40418.58984375, 30805.978515625, 28974.296875, 21480.16015625, 27923.228515625, 33990.4296875, 33901.6484375, 27091.7890625, 0.0, 0.0, 0.0, 193.0, 0.0, 1.0, 1.0, 0.0, 0.0, 1.0, 1.0, 256.0, 1.0, 1.608195259556763E9, 2020-12-17 14:39:19.556
177.0, 40291.3203125, 30675.734375, 28839.962890625, 21332.4375, 27822.958984375, 33854.3515625, 33800.41796875, 26986.7578125, 0.0, 0.0, 0.0, 193.0, 0.0, 1.0, 1.0, 0.0, 0.0, 1.0, 1.0, 256.0, 1.0, 1.60819525955677E9, 2020-12-17 14:39:19.556
178.0, 40185.9765625, 30576.603515625, 28735.9609375, 21214.5546875, 27754.80859375, 33754.88671875, 33722.76953125, 26887.314453125, 0.0, 0.0, 0.0, 193.0, 0.0, 1.0, 1.0, 0.0, 0.0, 1.0, 1.0, 256.0, 1.0, 1.608195259556816E9, 2020-12-17 14:39:19.556
179.0, 40223.83984375, 30638.294921875, 28789.470703125, 21275.41796875, 27801.009765625, 33807.81640625, 33752.98828125, 26919.6796875, 0.0, 0.0, 0.0, 193.0, 0.0, 1.0, 1.0, 0.0, 0.0, 1.0, 1.0, 256.0, 1.0, 1.608195259556823E9, 2020-12-17 14:39:19.556
180.0, 40380.1015625, 30819.12109375, 28959.6796875, 21460.04296875, 27916.5234375, 33974.80859375, 33889.890625, 27065.703125, 0.0, 0.0, 0.0, 193.0, 0.0, 1.0, 1.0, 0.0, 0.0, 1.0, 1.0, 256.0, 1.0, 1.608195259616368E9, 2020-12-17 14:39:19.616
181.0, 40410.76953125, 30862.884765625, 28993.384765625, 21491.0, 27919.65234375, 33996.7109375, 33934.1484375, 27103.27734375, 0.0, 0.0, 0.0, 193.0, 0.0, 1.0, 1.0, 0.0, 0.0, 1.0, 1.0, 256.0, 1.0, 1.608195259616373E9, 2020-12-17 14:39:19.616
182.0, 40292.68359375, 30737.8046875, 28864.70703125, 21351.1015625, 27827.607421875, 33871.80859375, 33833.54296875, 26998.1796875, 0.0, 0.0, 0.0, 193.0, 0.0, 1.0, 1.0, 0.0, 0.0, 1.0, 1.0, 256.0, 1.0, 1.608195259616375E9, 2020-12-17 14:39:19.616
183.0, 40189.41796875, 30621.419921875, 28743.873046875, 21220.8125, 27757.646484375, 33762.28515625, 33726.58984375, 26902.357421875, 0.0, 0.0, 0.0, 193.0, 0.0, 1.0, 1.0, 0.0, 0.0, 1.0, 1.0, 256.0, 1.0, 1.608195259616377E9, 2020-12-17 14:39:19.616
184.0, 40229.62890625, 30675.845703125, 28793.181640625, 21274.568359375, 27792.359375, 33802.33984375, 33755.9609375, 26922.921875, 0.0, 0.0, 0.0, 193.0, 0.0, 1.0, 1.0, 0.0, 0.0, 1.0, 1.0, 256.0, 1.0, 1.608195259616379E9, 2020-12-17 14:39:19.616
185.0, 40374.109375, 30850.859375, 28953.3984375, 21457.830078125, 27896.876953125, 33956.45703125, 33872.5703125, 27055.712890625, 0.0, 0.0, 0.0, 193.0, 0.0, 1.0, 1.0, 0.0, 0.0, 1.0, 1.0, 256.0, 1.0, 1.60819525961638E9, 2020-12-17 14:39:19.616
186.0, 40394.609375, 30886.2421875, 28976.5546875, 21486.060546875, 27903.759765625, 33972.70703125, 33890.36328125, 27084.859375, 0.0, 0.0, 0.0, 193.0, 0.0, 1.0, 1.0, 0.0, 0.0, 1.0, 1.0, 256.0, 1.0, 1.608195259616382E9, 2020-12-17 14:39:19.616
187.0, 40287.25390625, 30764.24609375, 28852.703125, 21351.189453125, 27833.978515625, 33860.9921875, 33797.578125, 26983.896484375, 0.0, 0.0, 0.0, 193.0, 0.0, 1.0, 1.0, 0.0, 0.0, 1.0, 1.0, 256.0, 1.0, 1.608195259616384E9, 2020-12-17 14:39:19.616
188.0, 40178.0625, 30650.677734375, 28736.720703125, 21215.89453125, 27754.7421875, 33746.03515625, 33705.98046875, 26879.9609375, 0.0, 0.0, 0.0, 193.0, 0.0, 1.0, 1.0, 0.0, 0.0, 1.0, 1.0, 256.0, 1.0, 1.608195259616386E9, 2020-12-17 14:39:19.616
189.0, 40228.9140625, 30706.669921875, 28782.7421875, 21268.265625, 27798.08203125, 33790.78515625, 33731.640625, 26913.064453125, 0.0, 0.0, 0.0, 193.0, 0.0, 1.0, 1.0, 0.0, 0.0, 1.0, 1.0, 256.0, 1.0, 1.608195259616388E9, 2020-12-17 14:39:19.616
190.0, 40377.08203125, 30887.8515625, 28951.431640625, 21454.58984375, 27900.408203125, 33947.6953125, 33858.12890625, 27051.935546875, 0.0, 0.0, 0.0, 193.0, 0.0, 1.0, 1.0, 0.0, 0.0, 1.0, 1.0, 256.0, 1.0, 1.608195259616389E9, 2020-12-17 14:39:19.616
191.0, 40407.97265625, 30931.59375, 28988.35546875, 21497.169921875, 27920.748046875, 33985.3359375, 33901.60546875, 27094.58203125, 0.0, 0.0, 0.0, 193.0, 0.0, 1.0, 1.0, 0.0, 0.0, 1.0, 1.0, 256.0, 1.0, 1.608195259616391E9, 2020-12-17 14:39:19.616
192.0, 40290.828125, 30801.3515625, 28854.73828125, 21352.3515625, 27837.732421875, 33856.34375, 33800.8203125, 26981.728515625, 0.0, 0.0, 0.0, 193.0, 0.0, 1.0, 1.0, 0.0, 0.0, 1.0, 1.0, 256.0, 1.0, 1.608195259616393E9, 2020-12-17 14:39:19.616
193.0, 40181.328125, 30697.818359375, 28751.00390625, 21229.798828125, 27761.40234375, 33749.14453125, 33729.296875, 26887.8515625, 0.0, 0.0, 0.0, 193.0, 0.0, 1.0, 1.0, 0.0, 0.0, 1.0, 1.0, 256.0, 1.0, 1.608195259616401E9, 2020-12-17 14:39:19.616
194.0, 40223.37109375, 30750.25390625, 28795.953125, 21278.189453125, 27801.232421875, 33794.00390625, 33746.23828125, 26916.103515625, 0.0, 0.0, 0.0, 193.0, 0.0, 1.0, 1.0, 0.0, 0.0, 1.0, 1.0, 256.0, 1.0, 1.608195259616403E9, 2020-12-17 14:39:19.616
195.0, 40374.08984375, 30926.85546875, 28955.208984375, 21452.755859375, 27907.404296875, 33933.8125, 33853.125, 27046.19140625, 0.0, 0.0, 0.0, 193.0, 0.0, 1.0, 1.0, 0.0, 0.0, 1.0, 1.0, 256.0, 1.0, 1.608195259676643E9, 2020-12-17 14:39:19.676
196.0, 40403.79296875, 30976.455078125, 28997.85546875, 21501.3046875, 27910.779296875, 33972.078125, 33900.48828125, 27091.833984375, 0.0, 0.0, 0.0, 193.0, 0.0, 1.0, 1.0, 0.0, 0.0, 1.0, 1.0, 256.0, 1.0, 1.608195259676653E9, 2020-12-17 14:39:19.676
197.0, 40299.5, 30853.005859375, 28874.18359375, 21376.224609375, 27838.650390625, 33873.3515625, 33807.125, 26994.9375, 0.0, 0.0, 0.0, 193.0, 0.0, 1.0, 1.0, 0.0, 0.0, 1.0, 1.0, 256.0, 1.0, 1.608195259676656E9, 2020-12-17 14:39:19.676
198.0, 40199.20703125, 30739.279296875, 28759.2734375, 21253.6015625, 27774.03125, 33775.18359375, 33710.7421875, 26882.353515625, 0.0, 0.0, 0.0, 193.0, 0.0, 1.0, 1.0, 0.0, 0.0, 1.0, 1.0, 256.0, 1.0, 1.608195259676659E9, 2020-12-17 14:39:19.676
199.0, 40239.59765625, 30792.90234375, 28805.384765625, 21290.28125, 27806.552734375, 33808.21875, 33742.34765625, 26908.125, 0.0, 0.0, 0.0, 193.0, 0.0, 1.0, 1.0, 0.0, 0.0, 1.0, 1.0, 256.0, 1.0, 1.608195259676663E9, 2020-12-17 14:39:19.676
200.0, 40384.32421875, 30972.05078125, 28972.53125, 21462.3671875, 27912.09765625, 33954.82421875, 33881.62109375, 27060.7421875, 0.0, 0.0, 0.0, 193.0, 0.0, 1.0, 1.0, 0.0, 0.0, 1.0, 1.0, 256.0, 1.0, 1.608195259676666E9, 2020-12-17 14:39:19.676
201.0, 40413.40625, 31012.888671875, 29008.09375, 21515.810546875, 27923.67578125, 33979.14453125, 33913.2734375, 27105.802734375, 0.0, 0.0, 0.0, 193.0, 0.0, 1.0, 1.0, 0.0, 0.0, 1.0, 1.0, 256.0, 1.0, 1.608195259676669E9, 2020-12-17 14:39:19.676
202.0, 40294.62890625, 30883.962890625, 28879.078125, 21384.001953125, 27829.44140625, 33860.76953125, 33798.33984375, 26981.70703125, 0.0, 0.0, 0.0, 193.0, 0.0, 1.0, 1.0, 0.0, 0.0, 1.0, 1.0, 256.0, 1.0, 1.608195259676672E9, 2020-12-17 14:39:19.676
203.0, 40188.5234375, 30768.203125, 28761.28515625, 21257.513671875, 27757.267578125, 33756.453125, 33700.39453125, 26873.255859375, 0.0, 0.0, 0.0, 193.0, 0.0, 1.0, 1.0, 0.0, 0.0, 1.0, 1.0, 256.0, 1.0, 1.608195259676676E9, 2020-12-17 14:39:19.676
204.0, 40217.11328125, 30808.8828125, 28794.87890625, 21291.3984375, 27799.376953125, 33785.6875, 33722.38671875, 26895.31640625, 0.0, 0.0, 0.0, 193.0, 0.0, 1.0, 1.0, 0.0, 0.0, 1.0, 1.0, 256.0, 1.0, 1.608195259676679E9, 2020-12-17 14:39:19.676
205.0, 40368.43359375, 30989.84375, 28969.4921875, 21474.1015625, 27904.67578125, 33954.3984375, 33860.1640625, 27037.4296875, 0.0, 0.0, 0.0, 193.0, 0.0, 1.0, 1.0, 0.0, 0.0, 1.0, 1.0, 256.0, 1.0, 1.608195259676682E9, 2020-12-17 14:39:19.676
206.0, 40410.3671875, 31041.431640625, 29015.693359375, 21521.01953125, 27926.828125, 33985.109375, 33910.703125, 27088.8828125, 0.0, 0.0, 0.0, 193.0, 0.0, 1.0, 1.0, 0.0, 0.0, 1.0, 1.0, 256.0, 1.0, 1.608195259676685E9, 2020-12-17 14:39:19.676
207.0, 40290.4921875, 30911.544921875, 28881.4921875, 21368.22265625, 27840.548828125, 33870.08984375, 33800.9765625, 26984.208984375, 0.0, 0.0, 0.0, 193.0, 0.0, 1.0, 1.0, 0.0, 0.0, 1.0, 1.0, 256.0, 1.0, 1.608195259676689E9, 2020-12-17 14:39:19.676
208.0, 40183.875, 30798.53515625, 28763.720703125, 21233.6875, 27763.1015625, 33753.8359375, 33699.72265625, 26880.69921875, 0.0, 0.0, 0.0, 193.0, 0.0, 1.0, 1.0, 0.0, 0.0, 1.0, 1.0, 256.0, 1.0, 1.608195259676692E9, 2020-12-17 14:39:19.676
209.0, 40212.73046875, 30836.779296875, 28796.109375, 21291.623046875, 27782.2109375, 33775.609375, 33716.1953125, 26903.564453125, 0.0, 0.0, 0.0, 193.0, 0.0, 1.0, 1.0, 0.0, 0.0, 1.0, 1.0, 256.0, 1.0, 1.608195259676696E9, 2020-12-17 14:39:19.676
210.0, 40365.03515625, 31019.705078125, 28972.0625, 21497.302734375, 27887.7109375, 33937.30078125, 33865.75390625, 27050.951171875, 0.0, 0.0, 0.0, 193.0, 0.0, 1.0, 1.0, 0.0, 0.0, 1.0, 1.0, 256.0, 1.0, 1.608195259736835E9, 2020-12-17 14:39:19.736
211.0, 40405.42578125, 31076.076171875, 29021.884765625, 21541.359375, 27911.873046875, 33993.8046875, 33913.96484375, 27095.140625, 0.0, 0.0, 0.0, 193.0, 0.0, 1.0, 1.0, 0.0, 0.0, 1.0, 1.0, 256.0, 1.0, 1.608195259736851E9, 2020-12-17 14:39:19.736
212.0, 40292.01171875, 30950.482421875, 28895.75390625, 21407.158203125, 27834.380859375, 33886.4296875, 33805.9609375, 26987.16015625, 0.0, 0.0, 0.0, 193.0, 0.0, 1.0, 1.0, 0.0, 0.0, 1.0, 1.0, 256.0, 1.0, 1.608195259736858E9, 2020-12-17 14:39:19.736
