%OpenBCI Raw EEG Data
%Number of channels = 8
%Sample Rate = 250 Hz
%Board = OpenBCI_GUI$BoardCytonSerial
Sample Index, EXG Channel 0, EXG Channel 1, EXG Channel 2, EXG Channel 3, EXG Channel 4, EXG Channel 5, EXG Channel 6, EXG Channel 7, Accel Channel 0, Accel Channel 1, Accel Channel 2, Other, Other, Other, Other, Other, Other, Other, Analog Channel 0, Analog Channel 1, Analog Channel 2, Timestamp, Timestamp (Formatted)
0.0, 0.0, 0.0, 0.0, 0.0, 0.0, 0.0, 0.0, 0.0, 0.0, 0.0, 0.0, 193.0, 0.0, 1.0, 1.0, 0.0, 0.0, 1.0, 1.0, 256.0, 1.0, 1.606467733419746E9, 2020-11-27 14:47:13.419
1.0, -26406.1484375, 16106.6220703125, -26714.892578125, 51510.17578125, 3159.10595703125, 1393.9217529296875, 26802.333984375, 34173.71484375, 0.0, 0.0, 0.0, 193.0, 0.0, 1.0, 1.0, 0.0, 0.0, 1.0, 1.0, 256.0, 1.0, 1.606467733478338E9, 2020-11-27 14:47:13.478
2.0, -26416.9453125, 16104.0068359375, -26724.34765625, 51471.10546875, 3166.884521484375, 1396.9393310546875, 26775.890625, 34204.515625, 0.0, 0.0, 0.0, 193.0, 0.0, 1.0, 1.0, 0.0, 0.0, 1.0, 1.0, 256.0, 1.0, 1.606467733478348E9, 2020-11-27 14:47:13.478
3.0, -26142.80078125, 16389.953125, -26445.80078125, 51622.58203125, 3306.180419921875, 1533.284912109375, 26969.14453125, 34328.94921875, 0.0, 0.0, 0.0, 193.0, 0.0, 1.0, 1.0, 0.0, 0.0, 1.0, 1.0, 256.0, 1.0, 1.606467733478352E9, 2020-11-27 14:47:13.478
4.0, -26142.21875, 16382.017578125, -26446.26953125, 51641.0, 3295.45166015625, 1529.3734130859375, 26988.501953125, 34289.5625, 0.0, 0.0, 0.0, 193.0, 0.0, 1.0, 1.0, 0.0, 0.0, 1.0, 1.0, 256.0, 1.0, 1.606467733478357E9, 2020-11-27 14:47:13.478
5.0, -26254.134765625, 16262.48046875, -26564.17578125, 51556.93359375, 3234.587890625, 1471.8846435546875, 26904.32421875, 34224.0078125, 0.0, 0.0, 0.0, 193.0, 0.0, 1.0, 1.0, 0.0, 0.0, 1.0, 1.0, 256.0, 1.0, 1.606467733478362E9, 2020-11-27 14:47:13.478
6.0, -26401.23046875, 16118.177734375, -26702.98046875, 51473.67578125, 3150.74658203125, 1406.148193359375, 26804.412109375, 34178.0078125, 0.0, 0.0, 0.0, 193.0, 0.0, 1.0, 1.0, 0.0, 0.0, 1.0, 1.0, 256.0, 1.0, 1.606467733478366E9, 2020-11-27 14:47:13.478
7.0, -26408.830078125, 16123.67578125, -26697.4140625, 51459.2109375, 3166.392822265625, 1425.59423828125, 26804.45703125, 34220.9453125, 0.0, 0.0, 0.0, 193.0, 0.0, 1.0, 1.0, 0.0, 0.0, 1.0, 1.0, 256.0, 1.0, 1.60646773347837E9, 2020-11-27 14:47:13.478
8.0, -26133.7265625, 16400.16796875, -26434.892578125, 51612.5, 3327.45947265625, 1552.1497802734375, 26986.33203125, 34339.56640625, 0.0, 0.0, 0.0, 193.0, 0.0, 1.0, 1.0, 0.0, 0.0, 1.0, 1.0, 256.0, 1.0, 1.606467733478375E9, 2020-11-27 14:47:13.478
9.0, -26133.345703125, 16380.5869140625, -26450.986328125, 51648.0859375, 3300.05615234375, 1516.3199462890625, 26982.197265625, 34290.76953125, 0.0, 0.0, 0.0, 193.0, 0.0, 1.0, 1.0, 0.0, 0.0, 1.0, 1.0, 256.0, 1.0, 1.606467733478379E9, 2020-11-27 14:47:13.478
10.0, -26255.23046875, 16256.646484375, -26568.6015625, 51576.11328125, 3228.418701171875, 1453.869140625, 26899.630859375, 34226.3984375, 0.0, 0.0, 0.0, 193.0, 0.0, 1.0, 1.0, 0.0, 0.0, 1.0, 1.0, 256.0, 1.0, 1.606467733478383E9, 2020-11-27 14:47:13.478
11.0, -26395.7109375, 16116.2998046875, -26703.650390625, 51516.9921875, 3158.52490234375, 1395.0169677734375, 26805.1953125, 34179.75, 0.0, 0.0, 0.0, 193.0, 0.0, 1.0, 1.0, 0.0, 0.0, 1.0, 1.0, 256.0, 1.0, 1.606467733478467E9, 2020-11-27 14:47:13.478
12.0, -26403.421875, 16119.7646484375, -26701.99609375, 51486.4609375, 3165.09619140625, 1409.00927734375, 26800.5, 34216.765625, 0.0, 0.0, 0.0, 193.0, 0.0, 1.0, 1.0, 0.0, 0.0, 1.0, 1.0, 256.0, 1.0, 1.606467733478474E9, 2020-11-27 14:47:13.478
13.0, -26137.8828125, 16397.08203125, -26432.92578125, 51577.69921875, 3313.3330078125, 1559.8387451171875, 26990.982421875, 34335.98828125, 0.0, 0.0, 0.0, 193.0, 0.0, 1.0, 1.0, 0.0, 0.0, 1.0, 1.0, 256.0, 1.0, 1.606467733478478E9, 2020-11-27 14:47:13.478
14.0, -26142.197265625, 16388.5, -26433.841796875, 51576.046875, 3305.107666015625, 1554.5413818359375, 27004.013671875, 34302.55078125, 0.0, 0.0, 0.0, 193.0, 0.0, 1.0, 1.0, 0.0, 0.0, 1.0, 1.0, 256.0, 1.0, 1.606467733478482E9, 2020-11-27 14:47:13.478
15.0, -26251.1171875, 16263.083984375, -26563.638671875, 51557.0234375, 3231.861083984375, 1461.8040771484375, 26908.169921875, 34234.80078125, 0.0, 0.0, 0.0, 193.0, 0.0, 1.0, 1.0, 0.0, 0.0, 1.0, 1.0, 256.0, 1.0, 1.606467733478486E9, 2020-11-27 14:47:13.478
16.0, -26386.703125, 16121.552734375, -26700.431640625, 51549.40234375, 3166.8173828125, 1392.2677001953125, 26807.072265625, 34185.11328125, 0.0, 0.0, 0.0, 193.0, 0.0, 1.0, 1.0, 0.0, 0.0, 1.0, 1.0, 256.0, 1.0, 1.606467733539187E9, 2020-11-27 14:47:13.539
17.0, -26394.48046875, 16120.703125, -26703.5390625, 51519.3828125, 3189.973876953125, 1408.00341796875, 26794.0625, 34215.55859375, 0.0, 0.0, 0.0, 193.0, 0.0, 1.0, 1.0, 0.0, 0.0, 1.0, 1.0, 256.0, 1.0, 1.606467733539205E9, 2020-11-27 14:47:13.539
18.0, -26136.720703125, 16389.482421875, -26445.98046875, 51637.17578125, 3320.26220703125, 1535.6541748046875, 26966.1484375, 34323.1796875, 0.0, 0.0, 0.0, 193.0, 0.0, 1.0, 1.0, 0.0, 0.0, 1.0, 1.0, 256.0, 1.0, 1.606467733539209E9, 2020-11-27 14:47:13.539
19.0, -26140.23046875, 16379.7822265625, -26448.3046875, 51644.84375, 3305.398193359375, 1528.8369140625, 26987.919921875, 34285.0703125, 0.0, 0.0, 0.0, 193.0, 0.0, 1.0, 1.0, 0.0, 0.0, 1.0, 1.0, 256.0, 1.0, 1.606467733539213E9, 2020-11-27 14:47:13.539
20.0, -26242.109375, 16265.9453125, -26555.79296875, 51584.203125, 3250.010498046875, 1474.902099609375, 26921.84765625, 34227.42578125, 0.0, 0.0, 0.0, 193.0, 0.0, 1.0, 1.0, 0.0, 0.0, 1.0, 1.0, 256.0, 1.0, 1.606467733539216E9, 2020-11-27 14:47:13.539
21.0, -26372.93359375, 16131.767578125, -26686.484375, 51505.8828125, 3180.943603515625, 1411.1326904296875, 26824.662109375, 34180.890625, 0.0, 0.0, 0.0, 193.0, 0.0, 1.0, 1.0, 0.0, 0.0, 1.0, 1.0, 256.0, 1.0, 1.60646773353922E9, 2020-11-27 14:47:13.539
22.0, -26366.8984375, 16141.4453125, -26679.353515625, 51484.515625, 3221.400390625, 1448.2589111328125, 26828.015625, 34226.0390625, 0.0, 0.0, 0.0, 193.0, 0.0, 1.0, 1.0, 0.0, 0.0, 1.0, 1.0, 256.0, 1.0, 1.606467733539224E9, 2020-11-27 14:47:13.539
23.0, -26112.357421875, 16408.615234375, -26418.21875, 51612.25390625, 3369.81591796875, 1585.7445068359375, 27013.556640625, 34350.0703125, 0.0, 0.0, 0.0, 193.0, 0.0, 1.0, 1.0, 0.0, 0.0, 1.0, 1.0, 256.0, 1.0, 1.606467733539228E9, 2020-11-27 14:47:13.539
24.0, -26116.716796875, 16403.408203125, -26416.7890625, 51637.17578125, 3354.43798828125, 1580.2906494140625, 27035.39453125, 34329.39453125, 0.0, 0.0, 0.0, 193.0, 0.0, 1.0, 1.0, 0.0, 0.0, 1.0, 1.0, 256.0, 1.0, 1.606467733539287E9, 2020-11-27 14:47:13.539
25.0, -26229.48046875, 16285.8828125, -26533.375, 51613.21484375, 3280.520751953125, 1502.104248046875, 26951.3515625, 34273.8515625, 0.0, 0.0, 0.0, 193.0, 0.0, 1.0, 1.0, 0.0, 0.0, 1.0, 1.0, 256.0, 1.0, 1.606467733539291E9, 2020-11-27 14:47:13.539
26.0, -26377.427734375, 16134.9638671875, -26681.0078125, 51556.0390625, 3187.447998046875, 1414.99951171875, 26840.755859375, 34223.203125, 0.0, 0.0, 0.0, 193.0, 0.0, 1.0, 1.0, 0.0, 0.0, 1.0, 1.0, 256.0, 1.0, 1.606467733539295E9, 2020-11-27 14:47:13.539
27.0, -26400.6953125, 16120.546875, -26697.81640625, 51510.0390625, 3176.384033203125, 1415.156005859375, 26807.048828125, 34246.203125, 0.0, 0.0, 0.0, 193.0, 0.0, 1.0, 1.0, 0.0, 0.0, 1.0, 1.0, 256.0, 1.0, 1.606467733539299E9, 2020-11-27 14:47:13.539
28.0, -26148.65625, 16375.916015625, -26453.82421875, 51584.6953125, 3306.202880859375, 1536.1011962890625, 26964.048828125, 34339.8125, 0.0, 0.0, 0.0, 193.0, 0.0, 1.0, 1.0, 0.0, 0.0, 1.0, 1.0, 256.0, 1.0, 1.606467733539304E9, 2020-11-27 14:47:13.539
29.0, -26147.78515625, 16370.953125, -26454.16015625, 51594.59765625, 3288.5673828125, 1529.798095703125, 26975.89453125, 34300.29296875, 0.0, 0.0, 0.0, 193.0, 0.0, 1.0, 1.0, 0.0, 0.0, 1.0, 1.0, 256.0, 1.0, 1.606467733539308E9, 2020-11-27 14:47:13.539
30.0, -26261.041015625, 16257.697265625, -26562.298828125, 51503.828125, 3225.155517578125, 1485.809814453125, 26904.7265625, 34242.06640625, 0.0, 0.0, 0.0, 193.0, 0.0, 1.0, 1.0, 0.0, 0.0, 1.0, 1.0, 256.0, 1.0, 1.606467733539312E9, 2020-11-27 14:47:13.539
31.0, -26393.54296875, 16118.8701171875, -26696.587890625, 51466.609375, 3159.955322265625, 1420.69921875, 26814.291015625, 34199.890625, 0.0, 0.0, 0.0, 193.0, 0.0, 1.0, 1.0, 0.0, 0.0, 1.0, 1.0, 256.0, 1.0, 1.606467733599267E9, 2020-11-27 14:47:13.599
32.0, -26393.564453125, 16125.419921875, -26695.1796875, 51517.55078125, 3166.370361328125, 1409.456298828125, 26807.51953125, 34238.6484375, 0.0, 0.0, 0.0, 193.0, 0.0, 1.0, 1.0, 0.0, 0.0, 1.0, 1.0, 256.0, 1.0, 1.606467733599283E9, 2020-11-27 14:47:13.599
33.0, -26135.267578125, 16391.740234375, -26442.068359375, 51642.9453125, 3308.125, 1534.178955078125, 26984.25390625, 34348.57421875, 0.0, 0.0, 0.0, 193.0, 0.0, 1.0, 1.0, 0.0, 0.0, 1.0, 1.0, 256.0, 1.0, 1.606467733599287E9, 2020-11-27 14:47:13.599
34.0, -26142.978515625, 16382.5986328125, -26445.3984375, 51649.15625, 3300.078369140625, 1531.2508544921875, 26997.732421875, 34309.34375, 0.0, 0.0, 0.0, 193.0, 0.0, 1.0, 1.0, 0.0, 0.0, 1.0, 1.0, 256.0, 1.0, 1.606467733599291E9, 2020-11-27 14:47:13.599
35.0, -26250.693359375, 16273.7236328125, -26550.16015625, 51558.85546875, 3235.10205078125, 1481.56298828125, 26920.283203125, 34254.8515625, 0.0, 0.0, 0.0, 193.0, 0.0, 1.0, 1.0, 0.0, 0.0, 1.0, 1.0, 256.0, 1.0, 1.606467733599295E9, 2020-11-27 14:47:13.599
36.0, -26386.255859375, 16141.892578125, -26679.935546875, 51501.12109375, 3158.2119140625, 1411.3114013671875, 26817.80078125, 34204.55859375, 0.0, 0.0, 0.0, 193.0, 0.0, 1.0, 1.0, 0.0, 0.0, 1.0, 1.0, 256.0, 1.0, 1.6064677335993E9, 2020-11-27 14:47:13.599
37.0, -26396.939453125, 16133.779296875, -26693.771484375, 51509.50390625, 3152.959228515625, 1408.58447265625, 26795.068359375, 34226.3515625, 0.0, 0.0, 0.0, 193.0, 0.0, 1.0, 1.0, 0.0, 0.0, 1.0, 1.0, 256.0, 1.0, 1.606467733599304E9, 2020-11-27 14:47:13.599
38.0, -26162.26953125, 16365.0078125, -26465.828125, 51610.98046875, 3281.414794921875, 1525.394775390625, 26955.173828125, 34321.75, 0.0, 0.0, 0.0, 193.0, 0.0, 1.0, 1.0, 0.0, 0.0, 1.0, 1.0, 256.0, 1.0, 1.606467733599308E9, 2020-11-27 14:47:13.599
39.0, -26171.880859375, 16348.087890625, -26475.685546875, 51600.87890625, 3270.7529296875, 1509.301513671875, 26963.646484375, 34284.578125, 0.0, 0.0, 0.0, 193.0, 0.0, 1.0, 1.0, 0.0, 0.0, 1.0, 1.0, 256.0, 1.0, 1.606467733599312E9, 2020-11-27 14:47:13.599
40.0, -26269.310546875, 16236.1953125, -26584.671875, 51522.421875, 3216.9970703125, 1449.3094482421875, 26887.314453125, 34231.828125, 0.0, 0.0, 0.0, 193.0, 0.0, 1.0, 1.0, 0.0, 0.0, 1.0, 1.0, 256.0, 1.0, 1.606467733599316E9, 2020-11-27 14:47:13.599
41.0, -26383.015625, 16113.1259765625, -26705.7734375, 51449.9140625, 3154.52392578125, 1398.2357177734375, 26797.7734375, 34187.57421875, 0.0, 0.0, 0.0, 193.0, 0.0, 1.0, 1.0, 0.0, 0.0, 1.0, 1.0, 256.0, 1.0, 1.60646773359932E9, 2020-11-27 14:47:13.599
42.0, -26386.099609375, 16119.9208984375, -26701.37109375, 51461.8046875, 3166.772705078125, 1421.4144287109375, 26793.34765625, 34223.06640625, 0.0, 0.0, 0.0, 193.0, 0.0, 1.0, 1.0, 0.0, 0.0, 1.0, 1.0, 256.0, 1.0, 1.606467733599325E9, 2020-11-27 14:47:13.599
43.0, -26143.203125, 16381.369140625, -26446.8515625, 51618.73828125, 3303.878173828125, 1532.793212890625, 26971.87109375, 34333.10546875, 0.0, 0.0, 0.0, 193.0, 0.0, 1.0, 1.0, 0.0, 0.0, 1.0, 1.0, 256.0, 1.0, 1.606467733599328E9, 2020-11-27 14:47:13.599
44.0, -26143.13671875, 16375.0888671875, -26447.34375, 51625.0625, 3298.200927734375, 1520.5667724609375, 26988.61328125, 34302.640625, 0.0, 0.0, 0.0, 193.0, 0.0, 1.0, 1.0, 0.0, 0.0, 1.0, 1.0, 256.0, 1.0, 1.606467733599333E9, 2020-11-27 14:47:13.599
45.0, -26244.880859375, 16262.3017578125, -26557.984375, 51551.0546875, 3230.1845703125, 1464.329833984375, 26915.34375, 34251.921875, 0.0, 0.0, 0.0, 193.0, 0.0, 1.0, 1.0, 0.0, 0.0, 1.0, 1.0, 256.0, 1.0, 1.606467733599337E9, 2020-11-27 14:47:13.599
46.0, -26381.31640625, 16122.3125, -26697.50390625, 51491.80078125, 3154.2333984375, 1389.5185546875, 26818.13671875, 34203.44140625, 0.0, 0.0, 0.0, 193.0, 0.0, 1.0, 1.0, 0.0, 0.0, 1.0, 1.0, 256.0, 1.0, 1.606467733659232E9, 2020-11-27 14:47:13.659
47.0, -26389.20703125, 16119.6533203125, -26702.869140625, 51518.51171875, 3168.382080078125, 1403.6224365234375, 26802.78125, 34236.0078125, 0.0, 0.0, 0.0, 193.0, 0.0, 1.0, 1.0, 0.0, 0.0, 1.0, 1.0, 256.0, 1.0, 1.6064677336593E9, 2020-11-27 14:47:13.659
48.0, -26135.625, 16382.3525390625, -26450.44921875, 51612.90234375, 3306.806396484375, 1534.581298828125, 26970.53125, 34341.7109375, 0.0, 0.0, 0.0, 193.0, 0.0, 1.0, 1.0, 0.0, 0.0, 1.0, 1.0, 256.0, 1.0, 1.606467733659304E9, 2020-11-27 14:47:13.659
49.0, -26130.685546875, 16376.4072265625, -26451.41015625, 51600.609375, 3298.625732421875, 1532.6143798828125, 26988.859375, 34307.17578125, 0.0, 0.0, 0.0, 193.0, 0.0, 1.0, 1.0, 0.0, 0.0, 1.0, 1.0, 256.0, 1.0, 1.606467733659308E9, 2020-11-27 14:47:13.659
50.0, -26233.482421875, 16266.8837890625, -26554.18359375, 51561.8515625, 3237.739501953125, 1479.618408203125, 26920.685546875, 34253.77734375, 0.0, 0.0, 0.0, 193.0, 0.0, 1.0, 1.0, 0.0, 0.0, 1.0, 1.0, 256.0, 1.0, 1.606467733659313E9, 2020-11-27 14:47:13.659
51.0, -26364.3515625, 16135.052734375, -26678.416015625, 51483.7109375, 3171.354736328125, 1420.8780517578125, 26828.328125, 34209.72265625, 0.0, 0.0, 0.0, 193.0, 0.0, 1.0, 1.0, 0.0, 0.0, 1.0, 1.0, 256.0, 1.0, 1.606467733659317E9, 2020-11-27 14:47:13.659
52.0, -26376.0859375, 16132.28125, -26685.322265625, 51439.02734375, 3176.942626953125, 1439.1170654296875, 26818.001953125, 34243.609375, 0.0, 0.0, 0.0, 193.0, 0.0, 1.0, 1.0, 0.0, 0.0, 1.0, 1.0, 256.0, 1.0, 1.606467733659321E9, 2020-11-27 14:47:13.659
53.0, -26123.556640625, 16387.0234375, -26441.8671875, 51562.41015625, 3315.83642578125, 1546.0924072265625, 26986.623046875, 34348.328125, 0.0, 0.0, 0.0, 193.0, 0.0, 1.0, 1.0, 0.0, 0.0, 1.0, 1.0, 256.0, 1.0, 1.606467733659325E9, 2020-11-27 14:47:13.659
54.0, -26120.560546875, 16378.642578125, -26446.716796875, 51621.3515625, 3315.791748046875, 1537.822265625, 26997.576171875, 34315.625, 0.0, 0.0, 0.0, 193.0, 0.0, 1.0, 1.0, 0.0, 0.0, 1.0, 1.0, 256.0, 1.0, 1.606467733659329E9, 2020-11-27 14:47:13.659
55.0, -26230.978515625, 16270.4375, -26552.306640625, 51622.76171875, 3248.87060546875, 1470.6329345703125, 26919.1875, 34263.6796875, 0.0, 0.0, 0.0, 193.0, 0.0, 1.0, 1.0, 0.0, 0.0, 1.0, 1.0, 256.0, 1.0, 1.606467733659333E9, 2020-11-27 14:47:13.659
56.0, -26369.0234375, 16132.3486328125, -26687.021484375, 51528.81640625, 3155.999267578125, 1397.252197265625, 26817.15234375, 34209.23046875, 0.0, 0.0, 0.0, 193.0, 0.0, 1.0, 1.0, 0.0, 0.0, 1.0, 1.0, 256.0, 1.0, 1.606467733659337E9, 2020-11-27 14:47:13.659
57.0, -26379.68359375, 16128.2802734375, -26697.078125, 51500.40625, 3163.71044921875, 1399.263916015625, 26799.583984375, 34233.484375, 0.0, 0.0, 0.0, 193.0, 0.0, 1.0, 1.0, 0.0, 0.0, 1.0, 1.0, 256.0, 1.0, 1.606467733659341E9, 2020-11-27 14:47:13.659
58.0, -26137.1015625, 16379.3798828125, -26452.439453125, 51587.66796875, 3305.84521484375, 1531.02734375, 26968.921875, 34335.47265625, 0.0, 0.0, 0.0, 193.0, 0.0, 1.0, 1.0, 0.0, 0.0, 1.0, 1.0, 256.0, 1.0, 1.606467733659346E9, 2020-11-27 14:47:13.659
59.0, -26135.87109375, 16370.39453125, -26454.49609375, 51594.44140625, 3295.04931640625, 1523.9195556640625, 26982.421875, 34301.6796875, 0.0, 0.0, 0.0, 193.0, 0.0, 1.0, 1.0, 0.0, 0.0, 1.0, 1.0, 256.0, 1.0, 1.60646773365935E9, 2020-11-27 14:47:13.659
60.0, -26237.3046875, 16266.458984375, -26553.177734375, 51537.33203125, 3242.29931640625, 1480.8477783203125, 26917.892578125, 34255.7890625, 0.0, 0.0, 0.0, 193.0, 0.0, 1.0, 1.0, 0.0, 0.0, 1.0, 1.0, 256.0, 1.0, 1.606467733659354E9, 2020-11-27 14:47:13.659
61.0, -26369.267578125, 16137.9140625, -26673.9453125, 51442.4921875, 3172.33837890625, 1436.4571533203125, 26833.291015625, 34211.98046875, 0.0, 0.0, 0.0, 193.0, 0.0, 1.0, 1.0, 0.0, 0.0, 1.0, 1.0, 256.0, 1.0, 1.606467733719242E9, 2020-11-27 14:47:13.719
62.0, -26380.533203125, 16129.6884765625, -26685.45703125, 51426.1328125, 3181.681396484375, 1441.441650390625, 26822.494140625, 34242.9375, 0.0, 0.0, 0.0, 193.0, 0.0, 1.0, 1.0, 0.0, 0.0, 1.0, 1.0, 256.0, 1.0, 1.606467733719261E9, 2020-11-27 14:47:13.719
63.0, -26129.345703125, 16380.05078125, -26450.6953125, 51623.1171875, 3309.108642578125, 1531.496826171875, 26977.861328125, 34345.7578125, 0.0, 0.0, 0.0, 193.0, 0.0, 1.0, 1.0, 0.0, 0.0, 1.0, 1.0, 256.0, 1.0, 1.606467733719265E9, 2020-11-27 14:47:13.719
64.0, -26125.208984375, 16379.1787109375, -26449.17578125, 51669.51953125, 3296.815185546875, 1517.4375, 26987.62890625, 34310.75390625, 0.0, 0.0, 0.0, 193.0, 0.0, 1.0, 1.0, 0.0, 0.0, 1.0, 1.0, 256.0, 1.0, 1.606467733719269E9, 2020-11-27 14:47:13.719
65.0, -26232.029296875, 16270.1474609375, -26550.943359375, 51589.0078125, 3234.7890625, 1464.4415283203125, 26917.109375, 34258.5859375, 0.0, 0.0, 0.0, 193.0, 0.0, 1.0, 1.0, 0.0, 0.0, 1.0, 1.0, 256.0, 1.0, 1.606467733719272E9, 2020-11-27 14:47:13.719
66.0, -26358.78515625, 16136.4609375, -26679.623046875, 51516.5, 3178.239013671875, 1411.646728515625, 26820.4375, 34212.3828125, 0.0, 0.0, 0.0, 193.0, 0.0, 1.0, 1.0, 0.0, 0.0, 1.0, 1.0, 256.0, 1.0, 1.606467733719276E9, 2020-11-27 14:47:13.719
67.0, -26373.671875, 16126.8720703125, -26692.228515625, 51493.30078125, 3187.51513671875, 1422.3531494140625, 26806.021484375, 34240.3671875, 0.0, 0.0, 0.0, 193.0, 0.0, 1.0, 1.0, 0.0, 0.0, 1.0, 1.0, 256.0, 1.0, 1.60646773371928E9, 2020-11-27 14:47:13.719
68.0, -26126.037109375, 16382.8447265625, -26443.69921875, 51582.34765625, 3317.736328125, 1555.5919189453125, 26988.142578125, 34350.40625, 0.0, 0.0, 0.0, 193.0, 0.0, 1.0, 1.0, 0.0, 0.0, 1.0, 1.0, 256.0, 1.0, 1.606467733719284E9, 2020-11-27 14:47:13.719
69.0, -26125.92578125, 16377.8828125, -26444.884765625, 51594.59765625, 3298.513916015625, 1545.4442138671875, 27001.95703125, 34312.47265625, 0.0, 0.0, 0.0, 193.0, 0.0, 1.0, 1.0, 0.0, 0.0, 1.0, 1.0, 256.0, 1.0, 1.606467733719288E9, 2020-11-27 14:47:13.719
70.0, -26234.93359375, 16270.8623046875, -26547.859375, 51541.421875, 3234.69970703125, 1486.703857421875, 26927.63671875, 34260.9765625, 0.0, 0.0, 0.0, 193.0, 0.0, 1.0, 1.0, 0.0, 0.0, 1.0, 1.0, 256.0, 1.0, 1.606467733719323E9, 2020-11-27 14:47:13.719
71.0, -26361.625, 16135.58984375, -26675.197265625, 51495.04296875, 3178.261474609375, 1428.9693603515625, 26832.462890625, 34214.59765625, 0.0, 0.0, 0.0, 193.0, 0.0, 1.0, 1.0, 0.0, 0.0, 1.0, 1.0, 256.0, 1.0, 1.606467733719327E9, 2020-11-27 14:47:13.719
72.0, -26378.25390625, 16128.7275390625, -26684.71875, 51475.08203125, 3180.138916015625, 1433.5513916015625, 26813.0390625, 34241.171875, 0.0, 0.0, 0.0, 193.0, 0.0, 1.0, 1.0, 0.0, 0.0, 1.0, 1.0, 256.0, 1.0, 1.606467733719331E9, 2020-11-27 14:47:13.719
73.0, -26139.626953125, 16378.3076171875, -26442.984375, 51537.48828125, 3301.86669921875, 1551.680419921875, 26987.25, 34346.5625, 0.0, 0.0, 0.0, 193.0, 0.0, 1.0, 1.0, 0.0, 0.0, 1.0, 1.0, 256.0, 1.0, 1.606467733719335E9, 2020-11-27 14:47:13.719
74.0, -26135.201171875, 16376.2060546875, -26444.705078125, 51566.8359375, 3291.204833984375, 1528.0322265625, 26995.162109375, 34309.0546875, 0.0, 0.0, 0.0, 193.0, 0.0, 1.0, 1.0, 0.0, 0.0, 1.0, 1.0, 256.0, 1.0, 1.606467733719339E9, 2020-11-27 14:47:13.719
75.0, -26236.41015625, 16270.8173828125, -26550.40625, 51551.63671875, 3237.9853515625, 1474.3880615234375, 26916.08203125, 34256.9765625, 0.0, 0.0, 0.0, 193.0, 0.0, 1.0, 1.0, 0.0, 0.0, 1.0, 1.0, 256.0, 1.0, 1.606467733719343E9, 2020-11-27 14:47:13.719
76.0, -26359.74609375, 16139.7470703125, -26679.17578125, 51538.5625, 3163.464599609375, 1403.041259765625, 26821.064453125, 34213.25390625, 0.0, 0.0, 0.0, 193.0, 0.0, 1.0, 1.0, 0.0, 0.0, 1.0, 1.0, 256.0, 1.0, 1.606467733779222E9, 2020-11-27 14:47:13.779
77.0, -26366.228515625, 16131.72265625, -26690.552734375, 51545.19921875, 3181.480224609375, 1407.958740234375, 26802.9375, 34243.296875, 0.0, 0.0, 0.0, 193.0, 0.0, 1.0, 1.0, 0.0, 0.0, 1.0, 1.0, 256.0, 1.0, 1.606467733779241E9, 2020-11-27 14:47:13.779
78.0, -26126.21484375, 16384.365234375, -26444.212890625, 51636.08203125, 3319.815185546875, 1546.13720703125, 26982.66796875, 34351.41015625, 0.0, 0.0, 0.0, 193.0, 0.0, 1.0, 1.0, 0.0, 0.0, 1.0, 1.0, 256.0, 1.0, 1.606467733779245E9, 2020-11-27 14:47:13.779
79.0, -26120.13671875, 16382.2861328125, -26440.056640625, 51624.125, 3310.04736328125, 1544.3936767578125, 27004.4609375, 34318.890625, 0.0, 0.0, 0.0, 193.0, 0.0, 1.0, 1.0, 0.0, 0.0, 1.0, 1.0, 256.0, 1.0, 1.606467733779249E9, 2020-11-27 14:47:13.779
80.0, -26219.802734375, 16277.92578125, -26538.42578125, 51565.76171875, 3251.59765625, 1493.34228515625, 26939.484375, 34272.30859375, 0.0, 0.0, 0.0, 193.0, 0.0, 1.0, 1.0, 0.0, 0.0, 1.0, 1.0, 256.0, 1.0, 1.606467733779253E9, 2020-11-27 14:47:13.779
81.0, -26349.263671875, 16147.8603515625, -26662.298828125, 51505.3671875, 3190.733642578125, 1442.7603759765625, 26852.4453125, 34235.5390625, 0.0, 0.0, 0.0, 193.0, 0.0, 1.0, 1.0, 0.0, 0.0, 1.0, 1.0, 256.0, 1.0, 1.606467733779257E9, 2020-11-27 14:47:13.779
82.0, -26365.53515625, 16136.4833984375, -26679.30859375, 51480.671875, 3186.755126953125, 1443.0509033203125, 26824.908203125, 34258.5859375, 0.0, 0.0, 0.0, 193.0, 0.0, 1.0, 1.0, 0.0, 0.0, 1.0, 1.0, 256.0, 1.0, 1.606467733779261E9, 2020-11-27 14:47:13.779
83.0, -26132.18359375, 16381.771484375, -26444.169921875, 51556.7109375, 3306.62744140625, 1557.0447998046875, 26983.650390625, 34360.9765625, 0.0, 0.0, 0.0, 193.0, 0.0, 1.0, 1.0, 0.0, 0.0, 1.0, 1.0, 256.0, 1.0, 1.606467733779264E9, 2020-11-27 14:47:13.779
84.0, -26129.791015625, 16381.1455078125, -26439.587890625, 51556.375, 3295.541015625, 1548.3499755859375, 26998.4921875, 34327.62890625, 0.0, 0.0, 0.0, 193.0, 0.0, 1.0, 1.0, 0.0, 0.0, 1.0, 1.0, 256.0, 1.0, 1.606467733779268E9, 2020-11-27 14:47:13.779
85.0, -26234.263671875, 16275.66796875, -26538.314453125, 51479.8671875, 3235.70556640625, 1499.399658203125, 26924.642578125, 34269.203125, 0.0, 0.0, 0.0, 193.0, 0.0, 1.0, 1.0, 0.0, 0.0, 1.0, 1.0, 256.0, 1.0, 1.606467733779272E9, 2020-11-27 14:47:13.779
86.0, -26363.748046875, 16138.80859375, -26672.9609375, 51455.703125, 3169.4326171875, 1429.5728759765625, 26833.537109375, 34222.8203125, 0.0, 0.0, 0.0, 193.0, 0.0, 1.0, 1.0, 0.0, 0.0, 1.0, 1.0, 256.0, 1.0, 1.606467733779276E9, 2020-11-27 14:47:13.779
87.0, -26379.6171875, 16125.576171875, -26693.994140625, 51518.87109375, 3174.70751953125, 1406.4610595703125, 26805.150390625, 34248.4375, 0.0, 0.0, 0.0, 193.0, 0.0, 1.0, 1.0, 0.0, 0.0, 1.0, 1.0, 256.0, 1.0, 1.60646773377928E9, 2020-11-27 14:47:13.779
88.0, -26138.93359375, 16377.189453125, -26452.751953125, 51621.0390625, 3302.224365234375, 1525.32763671875, 26964.205078125, 34347.23046875, 0.0, 0.0, 0.0, 193.0, 0.0, 1.0, 1.0, 0.0, 0.0, 1.0, 1.0, 256.0, 1.0, 1.606467733779284E9, 2020-11-27 14:47:13.779
89.0, -26130.328125, 16376.02734375, -26449.533203125, 51615.2734375, 3291.204833984375, 1528.389892578125, 26982.578125, 34312.140625, 0.0, 0.0, 0.0, 193.0, 0.0, 1.0, 1.0, 0.0, 0.0, 1.0, 1.0, 256.0, 1.0, 1.606467733779288E9, 2020-11-27 14:47:13.779
90.0, -26222.060546875, 16276.3388671875, -26545.7578125, 51562.96875, 3235.10205078125, 1477.8973388671875, 26917.556640625, 34263.703125, 0.0, 0.0, 0.0, 193.0, 0.0, 1.0, 1.0, 0.0, 0.0, 1.0, 1.0, 256.0, 1.0, 1.606467733779292E9, 2020-11-27 14:47:13.779
91.0, -26325.5703125, 16161.31640625, -26657.875, 51503.6484375, 3187.336181640625, 1436.1666259765625, 26840.5546875, 34228.38671875, 0.0, 0.0, 0.0, 193.0, 0.0, 1.0, 1.0, 0.0, 0.0, 1.0, 1.0, 256.0, 1.0, 1.60646773383923E9, 2020-11-27 14:47:13.839
92.0, -26364.08203125, 16139.2109375, -26680.158203125, 51450.6953125, 3177.546142578125, 1437.4853515625, 26822.62890625, 34253.66796875, 0.0, 0.0, 0.0, 193.0, 0.0, 1.0, 1.0, 0.0, 0.0, 1.0, 1.0, 256.0, 1.0, 1.606467733839251E9, 2020-11-27 14:47:13.839
93.0, -26168.9296875, 16360.7607421875, -26464.375, 51504.51953125, 3280.900634765625, 1533.284912109375, 26970.486328125, 34346.60546875, 0.0, 0.0, 0.0, 193.0, 0.0, 1.0, 1.0, 0.0, 0.0, 1.0, 1.0, 256.0, 1.0, 1.606467733839255E9, 2020-11-27 14:47:13.839
94.0, -26176.08203125, 16356.1123046875, -26464.0625, 51560.84765625, 3264.338134765625, 1509.100341796875, 26982.466796875, 34307.82421875, 0.0, 0.0, 0.0, 193.0, 0.0, 1.0, 1.0, 0.0, 0.0, 1.0, 1.0, 256.0, 1.0, 1.606467733839307E9, 2020-11-27 14:47:13.839
95.0, -26273.55859375, 16253.31640625, -26557.716796875, 51507.828125, 3221.020263671875, 1460.328857421875, 26913.734375, 34262.40625, 0.0, 0.0, 0.0, 193.0, 0.0, 1.0, 1.0, 0.0, 0.0, 1.0, 1.0, 256.0, 1.0, 1.606467733839311E9, 2020-11-27 14:47:13.839
96.0, -26406.619140625, 16122.9833984375, -26683.17578125, 51457.15625, 3151.282958984375, 1405.79052734375, 26821.17578125, 34221.390625, 0.0, 0.0, 0.0, 193.0, 0.0, 1.0, 1.0, 0.0, 0.0, 1.0, 1.0, 256.0, 1.0, 1.606467733839317E9, 2020-11-27 14:47:13.839
97.0, -26426.466796875, 16106.7109375, -26708.45703125, 51470.74609375, 3147.50537109375, 1390.546630859375, 26789.19140625, 34238.46875, 0.0, 0.0, 0.0, 193.0, 0.0, 1.0, 1.0, 0.0, 0.0, 1.0, 1.0, 256.0, 1.0, 1.606467733839322E9, 2020-11-27 14:47:13.839
98.0, -26194.0078125, 16352.8935546875, -26470.208984375, 51562.296875, 3279.85009765625, 1513.2353515625, 26955.263671875, 34343.921875, 0.0, 0.0, 0.0, 193.0, 0.0, 1.0, 1.0, 0.0, 0.0, 1.0, 1.0, 256.0, 1.0, 1.606467733839326E9, 2020-11-27 14:47:13.839
99.0, -26190.5, 16352.78125, -26462.7890625, 51562.76953125, 3278.911376953125, 1513.34716796875, 26975.314453125, 34313.30078125, 0.0, 0.0, 0.0, 193.0, 0.0, 1.0, 1.0, 0.0, 0.0, 1.0, 1.0, 256.0, 1.0, 1.60646773383933E9, 2020-11-27 14:47:13.839
100.0, -26297.5859375, 16245.4482421875, -26569.294921875, 51510.33203125, 3219.545166015625, 1454.96435546875, 26897.439453125, 34256.59375, 0.0, 0.0, 0.0, 193.0, 0.0, 1.0, 1.0, 0.0, 0.0, 1.0, 1.0, 256.0, 1.0, 1.606467733839334E9, 2020-11-27 14:47:13.839
101.0, -26418.240234375, 16113.05859375, -26699.962890625, 51450.83203125, 3152.556884765625, 1396.60400390625, 26799.94140625, 34207.12890625, 0.0, 0.0, 0.0, 193.0, 0.0, 1.0, 1.0, 0.0, 0.0, 1.0, 1.0, 256.0, 1.0, 1.606467733839339E9, 2020-11-27 14:47:13.839
102.0, -26447.052734375, 16100.453125, -26713.328125, 51425.26171875, 3148.868896484375, 1403.2200927734375, 26789.056640625, 34238.1328125, 0.0, 0.0, 0.0, 193.0, 0.0, 1.0, 1.0, 0.0, 0.0, 1.0, 1.0, 256.0, 1.0, 1.606467733839344E9, 2020-11-27 14:47:13.839
103.0, -26215.353515625, 16345.6962890625, -26475.037109375, 51517.05859375, 3262.415771484375, 1515.4259033203125, 26956.337890625, 34342.40234375, 0.0, 0.0, 0.0, 193.0, 0.0, 1.0, 1.0, 0.0, 0.0, 1.0, 1.0, 256.0, 1.0, 1.606467733839348E9, 2020-11-27 14:47:13.839
104.0, -26206.861328125, 16343.05859375, -26474.568359375, 51529.77734375, 3259.9794921875, 1496.35986328125, 26966.126953125, 34306.21484375, 0.0, 0.0, 0.0, 193.0, 0.0, 1.0, 1.0, 0.0, 0.0, 1.0, 1.0, 256.0, 1.0, 1.606467733839352E9, 2020-11-27 14:47:13.839
105.0, -26307.912109375, 16244.1298828125, -26569.986328125, 51516.4765625, 3203.854248046875, 1443.6544189453125, 26893.126953125, 34252.97265625, 0.0, 0.0, 0.0, 193.0, 0.0, 1.0, 1.0, 0.0, 0.0, 1.0, 1.0, 256.0, 1.0, 1.606467733839357E9, 2020-11-27 14:47:13.839
106.0, -26435.005859375, 16114.466796875, -26692.384765625, 51450.25, 3137.53662109375, 1397.945068359375, 26810.58203125, 34211.66796875, 0.0, 0.0, 0.0, 193.0, 0.0, 1.0, 1.0, 0.0, 0.0, 1.0, 1.0, 256.0, 1.0, 1.606467733899247E9, 2020-11-27 14:47:13.899
107.0, -26450.31640625, 16095.2001953125, -26715.630859375, 51426.3984375, 3145.51611328125, 1397.743896484375, 26788.498046875, 34238.578125, 0.0, 0.0, 0.0, 193.0, 0.0, 1.0, 1.0, 0.0, 0.0, 1.0, 1.0, 256.0, 1.0, 1.606467733899264E9, 2020-11-27 14:47:13.899
108.0, -26207.666015625, 16344.2431640625, -26478.412109375, 51532.2578125, 3274.7763671875, 1505.6805419921875, 26949.474609375, 34343.41015625, 0.0, 0.0, 0.0, 193.0, 0.0, 1.0, 1.0, 0.0, 0.0, 1.0, 1.0, 256.0, 1.0, 1.606467733899268E9, 2020-11-27 14:47:13.899
109.0, -26196.623046875, 16347.953125, -26471.4609375, 51549.671875, 3272.205810546875, 1499.712646484375, 26962.23828125, 34309.390625, 0.0, 0.0, 0.0, 193.0, 0.0, 1.0, 1.0, 0.0, 0.0, 1.0, 1.0, 256.0, 1.0, 1.606467733899272E9, 2020-11-27 14:47:13.899
110.0, -26301.05078125, 16241.40234375, -26574.927734375, 51486.078125, 3212.325439453125, 1444.9061279296875, 26892.03125, 34257.87109375, 0.0, 0.0, 0.0, 193.0, 0.0, 1.0, 1.0, 0.0, 0.0, 1.0, 1.0, 256.0, 1.0, 1.606467733899276E9, 2020-11-27 14:47:13.899
111.0, -26423.3828125, 16113.5732421875, -26698.173828125, 51451.390625, 3152.355712890625, 1389.3843994140625, 26810.4921875, 34220.54296875, 0.0, 0.0, 0.0, 193.0, 0.0, 1.0, 1.0, 0.0, 0.0, 1.0, 1.0, 256.0, 1.0, 1.606467733899279E9, 2020-11-27 14:47:13.899
112.0, -26442.939453125, 16097.703125, -26712.255859375, 51433.59765625, 3163.71044921875, 1399.4649658203125, 26788.140625, 34244.79296875, 0.0, 0.0, 0.0, 193.0, 0.0, 1.0, 1.0, 0.0, 0.0, 1.0, 1.0, 256.0, 1.0, 1.606467733899283E9, 2020-11-27 14:47:13.899
113.0, -26203.150390625, 16348.2666015625, -26472.48828125, 51547.90234375, 3287.025146484375, 1511.5814208984375, 26950.681640625, 34351.07421875, 0.0, 0.0, 0.0, 193.0, 0.0, 1.0, 1.0, 0.0, 0.0, 1.0, 1.0, 256.0, 1.0, 1.606467733899287E9, 2020-11-27 14:47:13.899
114.0, -26198.03125, 16352.4912109375, -26467.302734375, 51568.734375, 3264.65087890625, 1498.86328125, 26970.44140625, 34320.8359375, 0.0, 0.0, 0.0, 193.0, 0.0, 1.0, 1.0, 0.0, 0.0, 1.0, 1.0, 256.0, 1.0, 1.606467733899291E9, 2020-11-27 14:47:13.899
115.0, -26300.224609375, 16246.677734375, -26567.974609375, 51507.22265625, 3203.18359375, 1443.319091796875, 26900.546875, 34267.75, 0.0, 0.0, 0.0, 193.0, 0.0, 1.0, 1.0, 0.0, 0.0, 1.0, 1.0, 256.0, 1.0, 1.606467733899294E9, 2020-11-27 14:47:13.899
116.0, -26418.77734375, 16118.69140625, -26691.1328125, 51457.91796875, 3158.72607421875, 1392.5806884765625, 26810.537109375, 34223.26953125, 0.0, 0.0, 0.0, 193.0, 0.0, 1.0, 1.0, 0.0, 0.0, 1.0, 1.0, 256.0, 1.0, 1.606467733899298E9, 2020-11-27 14:47:13.899
117.0, -26441.353515625, 16104.744140625, -26707.607421875, 51434.84765625, 3159.888427734375, 1411.19970703125, 26789.033203125, 34246.203125, 0.0, 0.0, 0.0, 193.0, 0.0, 1.0, 1.0, 0.0, 0.0, 1.0, 1.0, 256.0, 1.0, 1.606467733899332E9, 2020-11-27 14:47:13.899
118.0, -26210.146484375, 16344.3544921875, -26478.501953125, 51510.44140625, 3271.49072265625, 1510.7095947265625, 26942.703125, 34344.7265625, 0.0, 0.0, 0.0, 193.0, 0.0, 1.0, 1.0, 0.0, 0.0, 1.0, 1.0, 256.0, 1.0, 1.606467733899337E9, 2020-11-27 14:47:13.899
119.0, -26201.5859375, 16345.8974609375, -26474.12109375, 51520.3203125, 3256.313720703125, 1491.8895263671875, 26962.818359375, 34313.4375, 0.0, 0.0, 0.0, 193.0, 0.0, 1.0, 1.0, 0.0, 0.0, 1.0, 1.0, 256.0, 1.0, 1.606467733899341E9, 2020-11-27 14:47:13.899
120.0, -26297.85546875, 16242.744140625, -26574.14453125, 51497.41015625, 3196.2099609375, 1436.322998046875, 26900.681640625, 34265.73828125, 0.0, 0.0, 0.0, 193.0, 0.0, 1.0, 1.0, 0.0, 0.0, 1.0, 1.0, 256.0, 1.0, 1.606467733899345E9, 2020-11-27 14:47:13.899
121.0, -26419.4921875, 16119.2060546875, -26693.390625, 51472.80078125, 3139.503662109375, 1376.7332763671875, 26806.201171875, 34222.7109375, 0.0, 0.0, 0.0, 193.0, 0.0, 1.0, 1.0, 0.0, 0.0, 1.0, 1.0, 256.0, 1.0, 1.606467733959259E9, 2020-11-27 14:47:13.959
122.0, -26437.619140625, 16108.677734375, -26705.974609375, 51443.07421875, 3149.785400390625, 1393.0947265625, 26797.70703125, 34255.6328125, 0.0, 0.0, 0.0, 193.0, 0.0, 1.0, 1.0, 0.0, 0.0, 1.0, 1.0, 256.0, 1.0, 1.606467733959278E9, 2020-11-27 14:47:13.959
123.0, -26204.111328125, 16354.32421875, -26468.689453125, 51552.10546875, 3285.43798828125, 1519.6055908203125, 26957.38671875, 34353.6484375, 0.0, 0.0, 0.0, 193.0, 0.0, 1.0, 1.0, 0.0, 0.0, 1.0, 1.0, 256.0, 1.0, 1.606467733959281E9, 2020-11-27 14:47:13.959
124.0, -26198.232421875, 16359.822265625, -26459.591796875, 51542.2265625, 3273.94921875, 1513.14599609375, 26971.6484375, 34319.6953125, 0.0, 0.0, 0.0, 193.0, 0.0, 1.0, 1.0, 0.0, 0.0, 1.0, 1.0, 256.0, 1.0, 1.606467733959286E9, 2020-11-27 14:47:13.959
125.0, -26293.630859375, 16252.0869140625, -26566.365234375, 51490.88671875, 3205.91064453125, 1455.97021484375, 26899.451171875, 34267.8828125, 0.0, 0.0, 0.0, 193.0, 0.0, 1.0, 1.0, 0.0, 0.0, 1.0, 1.0, 256.0, 1.0, 1.60646773395929E9, 2020-11-27 14:47:13.959
126.0, -26419.0234375, 16119.8095703125, -26693.81640625, 51441.93359375, 3135.793212890625, 1388.80322265625, 26806.267578125, 34221.859375, 0.0, 0.0, 0.0, 193.0, 0.0, 1.0, 1.0, 0.0, 0.0, 1.0, 1.0, 256.0, 1.0, 1.606467733959294E9, 2020-11-27 14:47:13.959
127.0, -26445.779296875, 16100.1845703125, -26712.45703125, 51435.7890625, 3132.686279296875, 1383.148193359375, 26784.474609375, 34242.1796875, 0.0, 0.0, 0.0, 193.0, 0.0, 1.0, 1.0, 0.0, 0.0, 1.0, 1.0, 256.0, 1.0, 1.606467733959297E9, 2020-11-27 14:47:13.959
128.0, -26211.599609375, 16342.1640625, -26479.640625, 51534.78515625, 3262.88525390625, 1505.4122314453125, 26947.373046875, 34345.5546875, 0.0, 0.0, 0.0, 193.0, 0.0, 1.0, 1.0, 0.0, 0.0, 1.0, 1.0, 256.0, 1.0, 1.606467733959301E9, 2020-11-27 14:47:13.959
129.0, -26197.427734375, 16351.7314453125, -26467.99609375, 51545.8046875, 3271.64697265625, 1506.7310791015625, 26968.384765625, 34317.05859375, 0.0, 0.0, 0.0, 193.0, 0.0, 1.0, 1.0, 0.0, 0.0, 1.0, 1.0, 256.0, 1.0, 1.606467733959305E9, 2020-11-27 14:47:13.959
130.0, -26301.162109375, 16252.1982421875, -26563.236328125, 51503.40234375, 3208.458740234375, 1448.9517822265625, 26896.58984375, 34265.87109375, 0.0, 0.0, 0.0, 193.0, 0.0, 1.0, 1.0, 0.0, 0.0, 1.0, 1.0, 256.0, 1.0, 1.606467733959309E9, 2020-11-27 14:47:13.959
131.0, -26423.60546875, 16126.73828125, -26680.0703125, 51413.97265625, 3141.604736328125, 1397.900390625, 26817.755859375, 34231.60546875, 0.0, 0.0, 0.0, 193.0, 0.0, 1.0, 1.0, 0.0, 0.0, 1.0, 1.0, 256.0, 1.0, 1.606467733959312E9, 2020-11-27 14:47:13.959
132.0, -26446.224609375, 16102.888671875, -26709.685546875, 51397.92578125, 3140.53173828125, 1397.8780517578125, 26788.810546875, 34254.11328125, 0.0, 0.0, 0.0, 193.0, 0.0, 1.0, 1.0, 0.0, 0.0, 1.0, 1.0, 256.0, 1.0, 1.606467733959317E9, 2020-11-27 14:47:13.959
133.0, -26213.990234375, 16343.818359375, -26479.484375, 51536.5703125, 3270.708251953125, 1504.808837890625, 26941.138671875, 34350.0703125, 0.0, 0.0, 0.0, 193.0, 0.0, 1.0, 1.0, 0.0, 0.0, 1.0, 1.0, 256.0, 1.0, 1.606467733959321E9, 2020-11-27 14:47:13.959
134.0, -26199.349609375, 16352.78125, -26466.453125, 51563.41796875, 3262.9521484375, 1497.3209228515625, 26966.619140625, 34323.00390625, 0.0, 0.0, 0.0, 193.0, 0.0, 1.0, 1.0, 0.0, 0.0, 1.0, 1.0, 256.0, 1.0, 1.606467733959326E9, 2020-11-27 14:47:13.959
135.0, -26296.87109375, 16251.0810546875, -26564.95703125, 51509.79296875, 3197.171142578125, 1442.7156982421875, 26892.5, 34271.68359375, 0.0, 0.0, 0.0, 193.0, 0.0, 1.0, 1.0, 0.0, 0.0, 1.0, 1.0, 256.0, 1.0, 1.606467733959329E9, 2020-11-27 14:47:13.959
136.0, -26418.5546875, 16123.8544921875, -26684.71875, 51426.2421875, 3143.638671875, 1401.2978515625, 26811.072265625, 34233.88671875, 0.0, 0.0, 0.0, 193.0, 0.0, 1.0, 1.0, 0.0, 0.0, 1.0, 1.0, 256.0, 1.0, 1.606467734019231E9, 2020-11-27 14:47:14.019
137.0, -26440.123046875, 16105.2138671875, -26705.7734375, 51421.4609375, 3146.4326171875, 1393.9217529296875, 26793.83984375, 34258.65234375, 0.0, 0.0, 0.0, 193.0, 0.0, 1.0, 1.0, 0.0, 0.0, 1.0, 1.0, 256.0, 1.0, 1.606467734019246E9, 2020-11-27 14:47:14.019
138.0, -26201.720703125, 16349.7197265625, -26472.48828125, 51535.765625, 3271.64697265625, 1508.8321533203125, 26952.626953125, 34362.85546875, 0.0, 0.0, 0.0, 193.0, 0.0, 1.0, 1.0, 0.0, 0.0, 1.0, 1.0, 256.0, 1.0, 1.60646773401925E9, 2020-11-27 14:47:14.019
139.0, -26187.59375, 16352.826171875, -26468.419921875, 51552.08203125, 3265.097900390625, 1501.8807373046875, 26966.931640625, 34327.60546875, 0.0, 0.0, 0.0, 193.0, 0.0, 1.0, 1.0, 0.0, 0.0, 1.0, 1.0, 256.0, 1.0, 1.606467734019254E9, 2020-11-27 14:47:14.019
140.0, -26284.33203125, 16253.830078125, -26566.076171875, 51524.1875, 3212.370361328125, 1446.1131591796875, 26894.53515625, 34275.59375, 0.0, 0.0, 0.0, 193.0, 0.0, 1.0, 1.0, 0.0, 0.0, 1.0, 1.0, 256.0, 1.0, 1.606467734019288E9, 2020-11-27 14:47:14.019
141.0, -26412.541015625, 16127.7890625, -26684.181640625, 51489.20703125, 3150.590087890625, 1391.59716796875, 26811.36328125, 34235.18359375, 0.0, 0.0, 0.0, 193.0, 0.0, 1.0, 1.0, 0.0, 0.0, 1.0, 1.0, 256.0, 1.0, 1.606467734019292E9, 2020-11-27 14:47:14.019
142.0, -26447.544921875, 16097.4130859375, -26714.6484375, 51432.43359375, 3141.33642578125, 1387.864501953125, 26783.0, 34253.578125, 0.0, 0.0, 0.0, 193.0, 0.0, 1.0, 1.0, 0.0, 0.0, 1.0, 1.0, 256.0, 1.0, 1.606467734019297E9, 2020-11-27 14:47:14.019
143.0, -26208.447265625, 16344.109375, -26476.4453125, 51515.2265625, 3264.427490234375, 1508.407470703125, 26950.123046875, 34359.19140625, 0.0, 0.0, 0.0, 193.0, 0.0, 1.0, 1.0, 0.0, 0.0, 1.0, 1.0, 256.0, 1.0, 1.606467734019301E9, 2020-11-27 14:47:14.019
144.0, -26188.107421875, 16353.541015625, -26464.017578125, 51542.96484375, 3258.7724609375, 1503.087646484375, 26972.138671875, 34330.35546875, 0.0, 0.0, 0.0, 193.0, 0.0, 1.0, 1.0, 0.0, 0.0, 1.0, 1.0, 256.0, 1.0, 1.606467734019305E9, 2020-11-27 14:47:14.019
145.0, -26282.25390625, 16257.048828125, -26553.625, 51498.0390625, 3204.256591796875, 1464.218017578125, 26910.806640625, 34284.51171875, 0.0, 0.0, 0.0, 193.0, 0.0, 1.0, 1.0, 0.0, 0.0, 1.0, 1.0, 256.0, 1.0, 1.606467734019309E9, 2020-11-27 14:47:14.019
146.0, -26424.544921875, 16117.57421875, -26688.98828125, 51435.83203125, 3138.497802734375, 1386.165771484375, 26806.69140625, 34236.74609375, 0.0, 0.0, 0.0, 193.0, 0.0, 1.0, 1.0, 0.0, 0.0, 1.0, 1.0, 256.0, 1.0, 1.606467734019314E9, 2020-11-27 14:47:14.019
147.0, -26463.4140625, 16081.990234375, -26728.037109375, 51397.765625, 3135.8154296875, 1362.674072265625, 26768.76171875, 34252.125, 0.0, 0.0, 0.0, 193.0, 0.0, 1.0, 1.0, 0.0, 0.0, 1.0, 1.0, 256.0, 1.0, 1.606467734019318E9, 2020-11-27 14:47:14.019
148.0, -26227.24609375, 16329.37890625, -26493.4765625, 51511.40234375, 3261.67822265625, 1488.6932373046875, 26930.07421875, 34355.65625, 0.0, 0.0, 0.0, 193.0, 0.0, 1.0, 1.0, 0.0, 0.0, 1.0, 1.0, 256.0, 1.0, 1.606467734019323E9, 2020-11-27 14:47:14.019
149.0, -26210.861328125, 16335.50390625, -26476.802734375, 51513.86328125, 3246.7919921875, 1489.654296875, 26962.283203125, 34333.93359375, 0.0, 0.0, 0.0, 193.0, 0.0, 1.0, 1.0, 0.0, 0.0, 1.0, 1.0, 256.0, 1.0, 1.606467734019327E9, 2020-11-27 14:47:14.019
150.0, -26307.376953125, 16240.6201171875, -26570.12109375, 51478.30078125, 3194.98046875, 1435.630126953125, 26902.625, 34286.8828125, 0.0, 0.0, 0.0, 193.0, 0.0, 1.0, 1.0, 0.0, 0.0, 1.0, 1.0, 256.0, 1.0, 1.606467734019332E9, 2020-11-27 14:47:14.019
151.0, -26424.431640625, 16119.1162109375, -26688.4296875, 51443.20703125, 3132.35107421875, 1379.9967041015625, 26810.0, 34238.33203125, 0.0, 0.0, 0.0, 193.0, 0.0, 1.0, 1.0, 0.0, 0.0, 1.0, 1.0, 256.0, 1.0, 1.606467734079317E9, 2020-11-27 14:47:14.079
152.0, -26449.958984375, 16096.18359375, -26712.189453125, 51406.75390625, 3131.658203125, 1383.550537109375, 26783.06640625, 34258.02734375, 0.0, 0.0, 0.0, 193.0, 0.0, 1.0, 1.0, 0.0, 0.0, 1.0, 1.0, 256.0, 1.0, 1.606467734079335E9, 2020-11-27 14:47:14.079
153.0, -26213.38671875, 16339.19140625, -26472.98046875, 51468.66796875, 3257.85595703125, 1507.73681640625, 26949.9453125, 34361.11328125, 0.0, 0.0, 0.0, 193.0, 0.0, 1.0, 1.0, 0.0, 0.0, 1.0, 1.0, 256.0, 1.0, 1.606467734079358E9, 2020-11-27 14:47:14.079
154.0, -26202.345703125, 16349.4736328125, -26463.861328125, 51512.8125, 3254.212646484375, 1507.75927734375, 26970.5078125, 34329.21484375, 0.0, 0.0, 0.0, 193.0, 0.0, 1.0, 1.0, 0.0, 0.0, 1.0, 1.0, 256.0, 1.0, 1.606467734079363E9, 2020-11-27 14:47:14.079
155.0, -26312.115234375, 16245.7841796875, -26569.607421875, 51491.95703125, 3196.0087890625, 1451.2093505859375, 26898.177734375, 34275.640625, 0.0, 0.0, 0.0, 193.0, 0.0, 1.0, 1.0, 0.0, 0.0, 1.0, 1.0, 256.0, 1.0, 1.606467734079366E9, 2020-11-27 14:47:14.079
156.0, -26429.751953125, 16116.568359375, -26696.51953125, 51437.0390625, 3129.266357421875, 1381.851806640625, 26796.34375, 34231.96484375, 0.0, 0.0, 0.0, 193.0, 0.0, 1.0, 1.0, 0.0, 0.0, 1.0, 1.0, 256.0, 1.0, 1.60646773407937E9, 2020-11-27 14:47:14.079
157.0, -26458.876953125, 16092.8310546875, -26719.966796875, 51385.16015625, 3130.786376953125, 1384.109375, 26769.833984375, 34252.16796875, 0.0, 0.0, 0.0, 193.0, 0.0, 1.0, 1.0, 0.0, 0.0, 1.0, 1.0, 256.0, 1.0, 1.606467734079374E9, 2020-11-27 14:47:14.079
158.0, -26230.375, 16333.6259765625, -26488.58203125, 51481.7421875, 3252.134033203125, 1492.2918701171875, 26929.068359375, 34355.76953125, 0.0, 0.0, 0.0, 193.0, 0.0, 1.0, 1.0, 0.0, 0.0, 1.0, 1.0, 256.0, 1.0, 1.606467734079378E9, 2020-11-27 14:47:14.079
159.0, -26211.755859375, 16344.9365234375, -26474.052734375, 51518.04296875, 3241.516845703125, 1475.5950927734375, 26959.33203125, 34332.45703125, 0.0, 0.0, 0.0, 193.0, 0.0, 1.0, 1.0, 0.0, 0.0, 1.0, 1.0, 256.0, 1.0, 1.606467734079381E9, 2020-11-27 14:47:14.079
160.0, -26310.37109375, 16243.75, -26569.763671875, 51482.61328125, 3170.7958984375, 1422.3084716796875, 26900.97265625, 34282.79296875, 0.0, 0.0, 0.0, 193.0, 0.0, 1.0, 1.0, 0.0, 0.0, 1.0, 1.0, 256.0, 1.0, 1.606467734079385E9, 2020-11-27 14:47:14.079
161.0, -26425.595703125, 16114.6904296875, -26696.1171875, 51393.5859375, 3115.34130859375, 1375.9957275390625, 26807.318359375, 34233.59375, 0.0, 0.0, 0.0, 193.0, 0.0, 1.0, 1.0, 0.0, 0.0, 1.0, 1.0, 256.0, 1.0, 1.606467734079389E9, 2020-11-27 14:47:14.079
162.0, -26453.82421875, 16091.4677734375, -26720.90625, 51383.8203125, 3122.94091796875, 1379.7283935546875, 26781.255859375, 34252.23828125, 0.0, 0.0, 0.0, 193.0, 0.0, 1.0, 1.0, 0.0, 0.0, 1.0, 1.0, 256.0, 1.0, 1.606467734079393E9, 2020-11-27 14:47:14.079
163.0, -26215.064453125, 16344.5341796875, -26477.40625, 51544.84375, 3254.9951171875, 1488.15673828125, 26939.953125, 34352.0390625, 0.0, 0.0, 0.0, 193.0, 0.0, 1.0, 1.0, 0.0, 0.0, 1.0, 1.0, 256.0, 1.0, 1.606467734079428E9, 2020-11-27 14:47:14.079
164.0, -26196.376953125, 16354.189453125, -26464.7109375, 51526.9375, 3256.246826171875, 1492.001220703125, 26954.794921875, 34316.09375, 0.0, 0.0, 0.0, 193.0, 0.0, 1.0, 1.0, 0.0, 0.0, 1.0, 1.0, 256.0, 1.0, 1.606467734079432E9, 2020-11-27 14:47:14.079
165.0, -26288.869140625, 16253.47265625, -26558.36328125, 51478.1015625, 3221.422607421875, 1459.0994873046875, 26901.642578125, 34270.6328125, 0.0, 0.0, 0.0, 193.0, 0.0, 1.0, 1.0, 0.0, 0.0, 1.0, 1.0, 256.0, 1.0, 1.606467734079436E9, 2020-11-27 14:47:14.079
166.0, -26396.939453125, 16136.349609375, -26672.15625, 51471.328125, 3179.71435546875, 1408.0257568359375, 26825.646484375, 34240.7265625, 0.0, 0.0, 0.0, 193.0, 0.0, 1.0, 1.0, 0.0, 0.0, 1.0, 1.0, 256.0, 1.0, 1.60646773413931E9, 2020-11-27 14:47:14.139
167.0, -26417.90625, 16118.177734375, -26690.015625, 51467.4609375, 3186.665771484375, 1419.6710205078125, 26820.818359375, 34279.1015625, 0.0, 0.0, 0.0, 193.0, 0.0, 1.0, 1.0, 0.0, 0.0, 1.0, 1.0, 256.0, 1.0, 1.606467734139327E9, 2020-11-27 14:47:14.139
168.0, -26185.89453125, 16365.41015625, -26451.76953125, 51537.7109375, 3317.669189453125, 1547.388916015625, 26987.65234375, 34392.3359375, 0.0, 0.0, 0.0, 193.0, 0.0, 1.0, 1.0, 0.0, 0.0, 1.0, 1.0, 256.0, 1.0, 1.606467734139331E9, 2020-11-27 14:47:14.139
169.0, -26176.5078125, 16372.205078125, -26443.767578125, 51526.08984375, 3303.7666015625, 1539.31982421875, 27001.599609375, 34367.5703125, 0.0, 0.0, 0.0, 193.0, 0.0, 1.0, 1.0, 0.0, 0.0, 1.0, 1.0, 256.0, 1.0, 1.606467734139334E9, 2020-11-27 14:47:14.139
170.0, -26287.70703125, 16260.8935546875, -26550.18359375, 51511.47265625, 3220.841552734375, 1469.873046875, 26921.22265625, 34313.01171875, 0.0, 0.0, 0.0, 193.0, 0.0, 1.0, 1.0, 0.0, 0.0, 1.0, 1.0, 256.0, 1.0, 1.606467734139338E9, 2020-11-27 14:47:14.139
171.0, -26424.5, 16124.01171875, -26681.8359375, 51430.04296875, 3137.93896484375, 1391.3736572265625, 26821.376953125, 34266.8984375, 0.0, 0.0, 0.0, 193.0, 0.0, 1.0, 1.0, 0.0, 0.0, 1.0, 1.0, 256.0, 1.0, 1.606467734139342E9, 2020-11-27 14:47:14.139
172.0, -26462.765625, 16088.830078125, -26718.201171875, 51390.4375, 3117.12939453125, 1377.560302734375, 26778.55078125, 34273.78515625, 0.0, 0.0, 0.0, 193.0, 0.0, 1.0, 1.0, 0.0, 0.0, 1.0, 1.0, 256.0, 1.0, 1.606467734139346E9, 2020-11-27 14:47:14.139
173.0, -26234.7109375, 16330.384765625, -26486.458984375, 51460.77734375, 3233.47021484375, 1491.107177734375, 26926.296875, 34366.25390625, 0.0, 0.0, 0.0, 193.0, 0.0, 1.0, 1.0, 0.0, 0.0, 1.0, 1.0, 256.0, 1.0, 1.60646773413935E9, 2020-11-27 14:47:14.139
174.0, -26218.662109375, 16344.4892578125, -26464.888671875, 51492.1796875, 3227.256591796875, 1496.4715576171875, 26953.36328125, 34339.25390625, 0.0, 0.0, 0.0, 193.0, 0.0, 1.0, 1.0, 0.0, 0.0, 1.0, 1.0, 256.0, 1.0, 1.606467734139353E9, 2020-11-27 14:47:14.139
175.0, -26315.9140625, 16241.6259765625, -26567.751953125, 51461.71484375, 3168.8291015625, 1424.9013671875, 26882.30859375, 34282.8359375, 0.0, 0.0, 0.0, 193.0, 0.0, 1.0, 1.0, 0.0, 0.0, 1.0, 1.0, 256.0, 1.0, 1.606467734139357E9, 2020-11-27 14:47:14.139
176.0, -26426.19921875, 16114.466796875, -26700.07421875, 51427.13671875, 3101.706787109375, 1354.91796875, 26782.9765625, 34232.56640625, 0.0, 0.0, 0.0, 193.0, 0.0, 1.0, 1.0, 0.0, 0.0, 1.0, 1.0, 256.0, 1.0, 1.606467734139361E9, 2020-11-27 14:47:14.139
177.0, -26458.02734375, 16087.623046875, -26729.35546875, 51405.7265625, 3102.53369140625, 1360.863525390625, 26761.5859375, 34257.82421875, 0.0, 0.0, 0.0, 193.0, 0.0, 1.0, 1.0, 0.0, 0.0, 1.0, 1.0, 256.0, 1.0, 1.606467734139365E9, 2020-11-27 14:47:14.139
178.0, -26222.8203125, 16335.302734375, -26487.755859375, 51487.421875, 3235.549072265625, 1490.8836669921875, 26935.52734375, 34366.8359375, 0.0, 0.0, 0.0, 193.0, 0.0, 1.0, 1.0, 0.0, 0.0, 1.0, 1.0, 256.0, 1.0, 1.606467734139369E9, 2020-11-27 14:47:14.139
179.0, -26204.22265625, 16350.099609375, -26466.54296875, 51506.26171875, 3238.857177734375, 1491.0848388671875, 26972.787109375, 34341.734375, 0.0, 0.0, 0.0, 193.0, 0.0, 1.0, 1.0, 0.0, 0.0, 1.0, 1.0, 256.0, 1.0, 1.606467734139373E9, 2020-11-27 14:47:14.139
180.0, -26308.6953125, 16249.248046875, -26559.794921875, 51476.578125, 3177.8369140625, 1440.77099609375, 26915.58984375, 34289.67578125, 0.0, 0.0, 0.0, 193.0, 0.0, 1.0, 1.0, 0.0, 0.0, 1.0, 1.0, 256.0, 1.0, 1.606467734139377E9, 2020-11-27 14:47:14.139
181.0, -26420.587890625, 16125.419921875, -26678.951171875, 51414.15234375, 3128.975830078125, 1395.7099609375, 26842.9921875, 34255.72265625, 0.0, 0.0, 0.0, 193.0, 0.0, 1.0, 1.0, 0.0, 0.0, 1.0, 1.0, 256.0, 1.0, 1.606467734199361E9, 2020-11-27 14:47:14.199
182.0, -26449.041015625, 16095.892578125, -26709.015625, 51392.671875, 3127.567626953125, 1400.4261474609375, 26806.84765625, 34275.59375, 0.0, 0.0, 0.0, 193.0, 0.0, 1.0, 1.0, 0.0, 0.0, 1.0, 1.0, 256.0, 1.0, 1.606467734199381E9, 2020-11-27 14:47:14.199
183.0, -26219.7578125, 16338.6328125, -26479.484375, 51492.359375, 3247.68603515625, 1496.0245361328125, 26954.4140625, 34374.30078125, 0.0, 0.0, 0.0, 193.0, 0.0, 1.0, 1.0, 0.0, 0.0, 1.0, 1.0, 256.0, 1.0, 1.606467734199385E9, 2020-11-27 14:47:14.199
184.0, -26196.556640625, 16350.1220703125, -26467.638671875, 51519.0703125, 3247.440185546875, 1487.0838623046875, 26976.587890625, 34345.421875, 0.0, 0.0, 0.0, 193.0, 0.0, 1.0, 1.0, 0.0, 0.0, 1.0, 1.0, 256.0, 1.0, 1.606467734199389E9, 2020-11-27 14:47:14.199
185.0, -26293.517578125, 16246.8564453125, -26566.96875, 51487.0859375, 3191.89599609375, 1434.1549072265625, 26903.318359375, 34291.28515625, 0.0, 0.0, 0.0, 193.0, 0.0, 1.0, 1.0, 0.0, 0.0, 1.0, 1.0, 256.0, 1.0, 1.606467734199393E9, 2020-11-27 14:47:14.199
186.0, -26417.927734375, 16120.8818359375, -26688.541015625, 51419.78515625, 3123.72314453125, 1377.6273193359375, 26813.107421875, 34247.67578125, 0.0, 0.0, 0.0, 193.0, 0.0, 1.0, 1.0, 0.0, 0.0, 1.0, 1.0, 256.0, 1.0, 1.606467734199397E9, 2020-11-27 14:47:14.199
187.0, -26450.5390625, 16101.1005859375, -26708.58984375, 51404.359375, 3117.53173828125, 1382.365966796875, 26794.623046875, 34272.44140625, 0.0, 0.0, 0.0, 193.0, 0.0, 1.0, 1.0, 0.0, 0.0, 1.0, 1.0, 256.0, 1.0, 1.606467734199433E9, 2020-11-27 14:47:14.199
188.0, -26203.75390625, 16357.810546875, -26465.068359375, 51523.85546875, 3248.848388671875, 1499.310302734375, 26952.984375, 34378.234375, 0.0, 0.0, 0.0, 193.0, 0.0, 1.0, 1.0, 0.0, 0.0, 1.0, 1.0, 256.0, 1.0, 1.606467734199438E9, 2020-11-27 14:47:14.199
189.0, -26194.1640625, 16350.501953125, -26462.7890625, 51511.0703125, 3238.454833984375, 1489.6319580078125, 26963.4453125, 34342.44921875, 0.0, 0.0, 0.0, 193.0, 0.0, 1.0, 1.0, 0.0, 0.0, 1.0, 1.0, 256.0, 1.0, 1.606467734199441E9, 2020-11-27 14:47:14.199
190.0, -26299.84375, 16232.6181640625, -26574.123046875, 51471.9765625, 3171.51123046875, 1422.80029296875, 26892.052734375, 34288.55859375, 0.0, 0.0, 0.0, 193.0, 0.0, 1.0, 1.0, 0.0, 0.0, 1.0, 1.0, 256.0, 1.0, 1.606467734199446E9, 2020-11-27 14:47:14.199
191.0, -26400.78515625, 16122.1337890625, -26684.13671875, 51421.55078125, 3125.913818359375, 1381.00244140625, 26814.203125, 34254.58203125, 0.0, 0.0, 0.0, 193.0, 0.0, 1.0, 1.0, 0.0, 0.0, 1.0, 1.0, 256.0, 1.0, 1.606467734199449E9, 2020-11-27 14:47:14.199
192.0, -26419.24609375, 16104.744140625, -26705.169921875, 51408.00390625, 3136.195556640625, 1390.0325927734375, 26797.482421875, 34281.83203125, 0.0, 0.0, 0.0, 193.0, 0.0, 1.0, 1.0, 0.0, 0.0, 1.0, 1.0, 256.0, 1.0, 1.606467734199454E9, 2020-11-27 14:47:14.199
193.0, -26184.12890625, 16344.8916015625, -26475.39453125, 51513.70703125, 3265.902587890625, 1509.34619140625, 26951.486328125, 34381.765625, 0.0, 0.0, 0.0, 193.0, 0.0, 1.0, 1.0, 0.0, 0.0, 1.0, 1.0, 256.0, 1.0, 1.606467734199458E9, 2020-11-27 14:47:14.199
194.0, -26172.169921875, 16351.2841796875, -26463.033203125, 51522.7578125, 3256.29150390625, 1501.8583984375, 26969.927734375, 34350.62890625, 0.0, 0.0, 0.0, 193.0, 0.0, 1.0, 1.0, 0.0, 0.0, 1.0, 1.0, 256.0, 1.0, 1.606467734199462E9, 2020-11-27 14:47:14.199
195.0, -26269.53515625, 16252.51171875, -26559.99609375, 51476.82421875, 3193.863037109375, 1447.677734375, 26906.984375, 34304.47265625, 0.0, 0.0, 0.0, 193.0, 0.0, 1.0, 1.0, 0.0, 0.0, 1.0, 1.0, 256.0, 1.0, 1.606467734199466E9, 2020-11-27 14:47:14.199
196.0, -26394.32421875, 16129.30859375, -26677.455078125, 51435.4296875, 3120.593994140625, 1385.80810546875, 26824.05859375, 34265.7578125, 0.0, 0.0, 0.0, 193.0, 0.0, 1.0, 1.0, 0.0, 0.0, 1.0, 1.0, 256.0, 1.0, 1.606467734259343E9, 2020-11-27 14:47:14.259
197.0, -26425.662109375, 16102.576171875, -26703.314453125, 51411.04296875, 3123.857421875, 1388.2445068359375, 26800.61328125, 34285.1171875, 0.0, 0.0, 0.0, 193.0, 0.0, 1.0, 1.0, 0.0, 0.0, 1.0, 1.0, 256.0, 1.0, 1.606467734259363E9, 2020-11-27 14:47:14.259
198.0, -26183.390625, 16349.294921875, -26466.87890625, 51501.74609375, 3257.5654296875, 1513.1683349609375, 26955.173828125, 34382.0546875, 0.0, 0.0, 0.0, 193.0, 0.0, 1.0, 1.0, 0.0, 0.0, 1.0, 1.0, 256.0, 1.0, 1.606467734259367E9, 2020-11-27 14:47:14.259
199.0, -26157.798828125, 16366.3271484375, -26449.51171875, 51524.9921875, 3263.7568359375, 1507.9603271484375, 26979.046875, 34353.98046875, 0.0, 0.0, 0.0, 193.0, 0.0, 1.0, 1.0, 0.0, 0.0, 1.0, 1.0, 256.0, 1.0, 1.606467734259371E9, 2020-11-27 14:47:14.259
200.0, -26265.01953125, 16259.3515625, -26552.888671875, 51518.82421875, 3197.640380859375, 1440.1451416015625, 26904.34765625, 34300.13671875, 0.0, 0.0, 0.0, 193.0, 0.0, 1.0, 1.0, 0.0, 0.0, 1.0, 1.0, 256.0, 1.0, 1.606467734259375E9, 2020-11-27 14:47:14.259
201.0, -26389.876953125, 16128.8173828125, -26676.60546875, 51463.7734375, 3125.176025390625, 1384.9364013671875, 26813.912109375, 34252.5703125, 0.0, 0.0, 0.0, 193.0, 0.0, 1.0, 1.0, 0.0, 0.0, 1.0, 1.0, 256.0, 1.0, 1.606467734259378E9, 2020-11-27 14:47:14.259
202.0, -26420.654296875, 16102.0625, -26704.03125, 51408.51953125, 3125.15380859375, 1384.0870361328125, 26785.255859375, 34275.4140625, 0.0, 0.0, 0.0, 193.0, 0.0, 1.0, 1.0, 0.0, 0.0, 1.0, 1.0, 256.0, 1.0, 1.606467734259382E9, 2020-11-27 14:47:14.259
203.0, -26185.6484375, 16351.10546875, -26467.458984375, 51513.70703125, 3258.437255859375, 1508.6533203125, 26951.59765625, 34383.328125, 0.0, 0.0, 0.0, 193.0, 0.0, 1.0, 1.0, 0.0, 0.0, 1.0, 1.0, 256.0, 1.0, 1.606467734259386E9, 2020-11-27 14:47:14.259
204.0, -26164.794921875, 16363.3984375, -26451.880859375, 51523.49609375, 3249.004638671875, 1506.194580078125, 26976.341796875, 34349.265625, 0.0, 0.0, 0.0, 193.0, 0.0, 1.0, 1.0, 0.0, 0.0, 1.0, 1.0, 256.0, 1.0, 1.60646773425939E9, 2020-11-27 14:47:14.259
205.0, -26264.572265625, 16255.841796875, -26554.69921875, 51451.1640625, 3188.677490234375, 1448.9071044921875, 26900.033203125, 34293.72265625, 0.0, 0.0, 0.0, 193.0, 0.0, 1.0, 1.0, 0.0, 0.0, 1.0, 1.0, 256.0, 1.0, 1.606467734259394E9, 2020-11-27 14:47:14.259
206.0, -26384.712890625, 16134.830078125, -26671.419921875, 51440.99609375, 3128.081787109375, 1388.0880126953125, 26816.68359375, 34258.3828125, 0.0, 0.0, 0.0, 193.0, 0.0, 1.0, 1.0, 0.0, 0.0, 1.0, 1.0, 256.0, 1.0, 1.606467734259397E9, 2020-11-27 14:47:14.259
207.0, -26416.83203125, 16113.2158203125, -26696.431640625, 51412.1171875, 3130.182861328125, 1390.3902587890625, 26794.15234375, 34279.57421875, 0.0, 0.0, 0.0, 193.0, 0.0, 1.0, 1.0, 0.0, 0.0, 1.0, 1.0, 256.0, 1.0, 1.606467734259402E9, 2020-11-27 14:47:14.259
208.0, -26179.279296875, 16360.671875, -26459.009765625, 51497.8125, 3273.591552734375, 1524.478271484375, 26947.775390625, 34381.51953125, 0.0, 0.0, 0.0, 193.0, 0.0, 1.0, 1.0, 0.0, 0.0, 1.0, 1.0, 256.0, 1.0, 1.606467734259405E9, 2020-11-27 14:47:14.259
209.0, -26163.923828125, 16372.451171875, -26440.48046875, 51534.47265625, 3265.031005859375, 1515.9622802734375, 26983.427734375, 34352.70703125, 0.0, 0.0, 0.0, 193.0, 0.0, 1.0, 1.0, 0.0, 0.0, 1.0, 1.0, 256.0, 1.0, 1.606467734259409E9, 2020-11-27 14:47:14.259
210.0, -26263.232421875, 16266.4140625, -26544.908203125, 51499.40234375, 3195.3828125, 1454.8973388671875, 26915.03125, 34298.99609375, 0.0, 0.0, 0.0, 193.0, 0.0, 1.0, 1.0, 0.0, 0.0, 1.0, 1.0, 256.0, 1.0, 1.606467734259445E9, 2020-11-27 14:47:14.259
211.0, -26375.83984375, 16142.048828125, -26663.41796875, 51444.37109375, 3143.281005859375, 1399.0179443359375, 26822.607421875, 34258.94140625, 0.0, 0.0, 0.0, 193.0, 0.0, 1.0, 1.0, 0.0, 0.0, 1.0, 1.0, 256.0, 1.0, 1.606467734319418E9, 2020-11-27 14:47:14.319
212.0, -26408.517578125, 16111.9189453125, -26699.806640625, 51422.734375, 3141.0234375, 1390.6361083984375, 26789.525390625, 34279.6171875, 0.0, 0.0, 0.0, 193.0, 0.0, 1.0, 1.0, 0.0, 0.0, 1.0, 1.0, 256.0, 1.0, 1.606467734319437E9, 2020-11-27 14:47:14.319
213.0, -26178.51953125, 16357.296875, -26461.423828125, 51533.93359375, 3261.544189453125, 1511.9166259765625, 26954.728515625, 34385.20703125, 0.0, 0.0, 0.0, 193.0, 0.0, 1.0, 1.0, 0.0, 0.0, 1.0, 1.0, 256.0, 1.0, 1.606467734319441E9, 2020-11-27 14:47:14.319
214.0, -26159.943359375, 16373.009765625, -26437.060546875, 51544.70703125, 3248.66943359375, 1514.285888671875, 26985.685546875, 34359.546875, 0.0, 0.0, 0.0, 193.0, 0.0, 1.0, 1.0, 0.0, 0.0, 1.0, 1.0, 256.0, 1.0, 1.606467734319446E9, 2020-11-27 14:47:14.319
215.0, -26257.845703125, 16269.3427734375, -26537.689453125, 51475.953125, 3193.52783203125, 1465.0673828125, 26920.306640625, 34309.61328125, 0.0, 0.0, 0.0, 193.0, 0.0, 1.0, 1.0, 0.0, 0.0, 1.0, 1.0, 256.0, 1.0, 1.60646773431945E9, 2020-11-27 14:47:14.319
216.0, -26374.521484375, 16143.0771484375, -26666.435546875, 51432.12109375, 3133.71435546875, 1393.4747314453125, 26820.638671875, 34263.1875, 0.0, 0.0, 0.0, 193.0, 0.0, 1.0, 1.0, 0.0, 0.0, 1.0, 1.0, 256.0, 1.0, 1.606467734319454E9, 2020-11-27 14:47:14.319
217.0, -26408.25, 16112.9921875, -26698.53125, 51440.48046875, 3127.098388671875, 1382.09765625, 26784.720703125, 34280.37890625, 0.0, 0.0, 0.0, 193.0, 0.0, 1.0, 1.0, 0.0, 0.0, 1.0, 1.0, 256.0, 1.0, 1.606467734319459E9, 2020-11-27 14:47:14.319
218.0, -26177.826171875, 16359.3310546875, -26461.0, 51532.4609375, 3256.738525390625, 1511.402587890625, 26951.12890625, 34386.01171875, 0.0, 0.0, 0.0, 193.0, 0.0, 1.0, 1.0, 0.0, 0.0, 1.0, 1.0, 256.0, 1.0, 1.606467734319463E9, 2020-11-27 14:47:14.319
219.0, -26159.2734375, 16374.10546875, -26442.26953125, 51527.65234375, 3252.08935546875, 1509.301513671875, 26977.50390625, 34358.96484375, 0.0, 0.0, 0.0, 193.0, 0.0, 1.0, 1.0, 0.0, 0.0, 1.0, 1.0, 256.0, 1.0, 1.606467734319467E9, 2020-11-27 14:47:14.319
220.0, -26263.388671875, 16263.2626953125, -26548.373046875, 51474.45703125, 3193.863037109375, 1448.68359375, 26901.41796875, 34301.1640625, 0.0, 0.0, 0.0, 193.0, 0.0, 1.0, 1.0, 0.0, 0.0, 1.0, 1.0, 256.0, 1.0, 1.606467734319471E9, 2020-11-27 14:47:14.319
221.0, -26381.830078125, 16141.625, -26665.96484375, 51446.0703125, 3143.795166015625, 1396.1793212890625, 26815.251953125, 34259.390625, 0.0, 0.0, 0.0, 193.0, 0.0, 1.0, 1.0, 0.0, 0.0, 1.0, 1.0, 256.0, 1.0, 1.606467734319475E9, 2020-11-27 14:47:14.319
222.0, -26413.189453125, 16113.05859375, -26693.994140625, 51424.23046875, 3148.53369140625, 1402.19189453125, 26791.962890625, 34282.94921875, 0.0, 0.0, 0.0, 193.0, 0.0, 1.0, 1.0, 0.0, 0.0, 1.0, 1.0, 256.0, 1.0, 1.60646773431948E9, 2020-11-27 14:47:14.319
223.0, -26178.7421875, 16358.3466796875, -26457.087890625, 51508.453125, 3271.624755859375, 1522.578369140625, 26950.705078125, 34387.62109375, 0.0, 0.0, 0.0, 193.0, 0.0, 1.0, 1.0, 0.0, 0.0, 1.0, 1.0, 256.0, 1.0, 1.606467734319484E9, 2020-11-27 14:47:14.319
224.0, -26155.541015625, 16376.4296875, -26435.205078125, 51521.41796875, 3257.900634765625, 1521.1256103515625, 26980.298828125, 34363.19140625, 0.0, 0.0, 0.0, 193.0, 0.0, 1.0, 1.0, 0.0, 0.0, 1.0, 1.0, 256.0, 1.0, 1.606467734319489E9, 2020-11-27 14:47:14.319
225.0, -26257.62109375, 16270.3037109375, -26536.482421875, 51462.07421875, 3194.578369140625, 1468.8671875, 26917.400390625, 34313.61328125, 0.0, 0.0, 0.0, 193.0, 0.0, 1.0, 1.0, 0.0, 0.0, 1.0, 1.0, 256.0, 1.0, 1.606467734319493E9, 2020-11-27 14:47:14.319
226.0, -26374.990234375, 16144.0830078125, -26659.439453125, 51415.78125, 3134.563720703125, 1410.4173583984375, 26837.380859375, 34276.64453125, 0.0, 0.0, 0.0, 193.0, 0.0, 1.0, 1.0, 0.0, 0.0, 1.0, 1.0, 256.0, 1.0, 1.606467734379374E9, 2020-11-27 14:47:14.379
227.0, -26406.216796875, 16111.740234375, -26697.03515625, 51416.07421875, 3135.14501953125, 1399.509765625, 26791.6484375, 34291.6875, 0.0, 0.0, 0.0, 193.0, 0.0, 1.0, 1.0, 0.0, 0.0, 1.0, 1.0, 256.0, 1.0, 1.606467734379399E9, 2020-11-27 14:47:14.379
228.0, -26175.43359375, 16356.5810546875, -26462.54296875, 51529.015625, 3263.220458984375, 1518.0633544921875, 26945.787109375, 34392.671875, 0.0, 0.0, 0.0, 193.0, 0.0, 1.0, 1.0, 0.0, 0.0, 1.0, 1.0, 256.0, 1.0, 1.606467734379405E9, 2020-11-27 14:47:14.379
229.0, -26152.6796875, 16374.5078125, -26437.5078125, 51552.484375, 3253.832763671875, 1511.33544921875, 26979.29296875, 34366.34375, 0.0, 0.0, 0.0, 193.0, 0.0, 1.0, 1.0, 0.0, 0.0, 1.0, 1.0, 256.0, 1.0, 1.606467734379409E9, 2020-11-27 14:47:14.379
230.0, -26258.470703125, 16266.01171875, -26540.169921875, 51483.46484375, 3190.28662109375, 1451.7457275390625, 26907.87890625, 34309.61328125, 0.0, 0.0, 0.0, 193.0, 0.0, 1.0, 1.0, 0.0, 0.0, 1.0, 1.0, 256.0, 1.0, 1.606467734379447E9, 2020-11-27 14:47:14.379
231.0, -26381.71875, 16137.869140625, -26663.640625, 51411.78125, 3126.271240234375, 1396.5816650390625, 26820.595703125, 34264.8203125, 0.0, 0.0, 0.0, 193.0, 0.0, 1.0, 1.0, 0.0, 0.0, 1.0, 1.0, 256.0, 1.0, 1.606467734379451E9, 2020-11-27 14:47:14.379
232.0, -26420.96875, 16104.6103515625, -26698.93359375, 51388.06640625, 3122.516357421875, 1396.89453125, 26788.966796875, 34283.5078125, 0.0, 0.0, 0.0, 193.0, 0.0, 1.0, 1.0, 0.0, 0.0, 1.0, 1.0, 256.0, 1.0, 1.606467734379456E9, 2020-11-27 14:47:14.379
233.0, -26185.380859375, 16349.16015625, -26467.125, 51499.37890625, 3251.88818359375, 1500.9195556640625, 26940.064453125, 34384.9375, 0.0, 0.0, 0.0, 193.0, 0.0, 1.0, 1.0, 0.0, 0.0, 1.0, 1.0, 256.0, 1.0, 1.606467734379526E9, 2020-11-27 14:47:14.379
234.0, -26166.314453125, 16367.3544921875, -26443.431640625, 51516.5234375, 3246.948486328125, 1501.388916015625, 26972.98828125, 34361.76171875, 0.0, 0.0, 0.0, 193.0, 0.0, 1.0, 1.0, 0.0, 0.0, 1.0, 1.0, 256.0, 1.0, 1.606467734379532E9, 2020-11-27 14:47:14.379
235.0, -26266.919921875, 16261.564453125, -26544.169921875, 51447.0546875, 3189.6162109375, 1458.3394775390625, 26908.326171875, 34309.76953125, 0.0, 0.0, 0.0, 193.0, 0.0, 1.0, 1.0, 0.0, 0.0, 1.0, 1.0, 256.0, 1.0, 1.606467734379537E9, 2020-11-27 14:47:14.379
236.0, -26383.23828125, 16135.634765625, -26668.9609375, 51415.26953125, 3128.93115234375, 1394.3912353515625, 26817.80078125, 34268.57421875, 0.0, 0.0, 0.0, 193.0, 0.0, 1.0, 1.0, 0.0, 0.0, 1.0, 1.0, 256.0, 1.0, 1.606467734379554E9, 2020-11-27 14:47:14.379
237.0, -26416.900390625, 16107.6279296875, -26699.26953125, 51407.7578125, 3126.62890625, 1387.6856689453125, 26789.705078125, 34290.94921875, 0.0, 0.0, 0.0, 193.0, 0.0, 1.0, 1.0, 0.0, 0.0, 1.0, 1.0, 256.0, 1.0, 1.60646773437956E9, 2020-11-27 14:47:14.379
238.0, -26186.162109375, 16351.1494140625, -26462.720703125, 51507.76171875, 3250.904541015625, 1507.3345947265625, 26947.28515625, 34396.94140625, 0.0, 0.0, 0.0, 193.0, 0.0, 1.0, 1.0, 0.0, 0.0, 1.0, 1.0, 256.0, 1.0, 1.606467734379565E9, 2020-11-27 14:47:14.379
239.0, -26162.849609375, 16364.5166015625, -26446.181640625, 51518.95703125, 3248.5576171875, 1505.2781982421875, 26973.48046875, 34370.9921875, 0.0, 0.0, 0.0, 193.0, 0.0, 1.0, 1.0, 0.0, 0.0, 1.0, 1.0, 256.0, 1.0, 1.60646773437957E9, 2020-11-27 14:47:14.379
240.0, -26263.65625, 16258.5244140625, -26546.33984375, 51493.23046875, 3195.51708984375, 1459.97119140625, 26905.12890625, 34315.203125, 0.0, 0.0, 0.0, 193.0, 0.0, 1.0, 1.0, 0.0, 0.0, 1.0, 1.0, 256.0, 1.0, 1.606467734379576E9, 2020-11-27 14:47:14.379
241.0, -26385.228515625, 16136.3720703125, -26662.92578125, 51444.19140625, 3134.586181640625, 1401.7001953125, 26819.9921875, 34274.90234375, 0.0, 0.0, 0.0, 193.0, 0.0, 1.0, 1.0, 0.0, 0.0, 1.0, 1.0, 256.0, 1.0, 1.606467734439317E9, 2020-11-27 14:47:14.439
242.0, -26417.19140625, 16108.1865234375, -26694.888671875, 51405.859375, 3124.974853515625, 1389.451416015625, 26785.904296875, 34291.53125, 0.0, 0.0, 0.0, 193.0, 0.0, 1.0, 1.0, 0.0, 0.0, 1.0, 1.0, 256.0, 1.0, 1.606467734439338E9, 2020-11-27 14:47:14.439
243.0, -26188.107421875, 16347.998046875, -26463.591796875, 51476.109375, 3243.998046875, 1510.15087890625, 26945.318359375, 34393.41015625, 0.0, 0.0, 0.0, 193.0, 0.0, 1.0, 1.0, 0.0, 0.0, 1.0, 1.0, 256.0, 1.0, 1.606467734439343E9, 2020-11-27 14:47:14.439
244.0, -26163.744140625, 16369.27734375, -26442.158203125, 51508.72265625, 3241.87451171875, 1501.4560546875, 26977.01171875, 34369.78515625, 0.0, 0.0, 0.0, 193.0, 0.0, 1.0, 1.0, 0.0, 0.0, 1.0, 1.0, 256.0, 1.0, 1.606467734439348E9, 2020-11-27 14:47:14.439
245.0, -26262.673828125, 16259.9775390625, -26548.619140625, 51487.10546875, 3183.31298828125, 1440.8828125, 26899.67578125, 34313.6796875, 0.0, 0.0, 0.0, 193.0, 0.0, 1.0, 1.0, 0.0, 0.0, 1.0, 1.0, 256.0, 1.0, 1.606467734439352E9, 2020-11-27 14:47:14.439
246.0, -26383.57421875, 16130.26953125, -26673.029296875, 51426.98046875, 3121.33154296875, 1383.3941650390625, 26810.06640625, 34270.09375, 0.0, 0.0, 0.0, 193.0, 0.0, 1.0, 1.0, 0.0, 0.0, 1.0, 1.0, 256.0, 1.0, 1.606467734439357E9, 2020-11-27 14:47:14.439
247.0, -26425.9296875, 16098.150390625, -26705.595703125, 51408.7421875, 3111.630859375, 1375.302734375, 26779.490234375, 34287.59765625, 0.0, 0.0, 0.0, 193.0, 0.0, 1.0, 1.0, 0.0, 0.0, 1.0, 1.0, 256.0, 1.0, 1.606467734439361E9, 2020-11-27 14:47:14.439
248.0, -26190.4765625, 16343.2373046875, -26469.6953125, 51532.97265625, 3249.67529296875, 1501.1654052734375, 26941.80859375, 34395.9375, 0.0, 0.0, 0.0, 193.0, 0.0, 1.0, 1.0, 0.0, 0.0, 1.0, 1.0, 256.0, 1.0, 1.606467734439366E9, 2020-11-27 14:47:14.439
249.0, -26148.208984375, 16373.6357421875, -26436.390625, 51553.828125, 3260.44873046875, 1513.503662109375, 26979.91796875, 34374.76953125, 0.0, 0.0, 0.0, 193.0, 0.0, 1.0, 1.0, 0.0, 0.0, 1.0, 1.0, 256.0, 1.0, 1.60646773443937E9, 2020-11-27 14:47:14.439
250.0, -26250.044921875, 16264.0224609375, -26541.51171875, 51473.47265625, 3188.6103515625, 1455.031494140625, 26904.302734375, 34316.72265625, 0.0, 0.0, 0.0, 193.0, 0.0, 1.0, 1.0, 0.0, 0.0, 1.0, 1.0, 256.0, 1.0, 1.606467734439375E9, 2020-11-27 14:47:14.439
251.0, -26387.1953125, 16132.9072265625, -26668.2890625, 51404.1171875, 3126.405517578125, 1393.0947265625, 26813.263671875, 34271.1015625, 0.0, 0.0, 0.0, 193.0, 0.0, 1.0, 1.0, 0.0, 0.0, 1.0, 1.0, 256.0, 1.0, 1.606467734439379E9, 2020-11-27 14:47:14.439
252.0, -26430.736328125, 16097.0771484375, -26705.37109375, 51414.95703125, 3122.583251953125, 1383.170654296875, 26777.12109375, 34287.328125, 0.0, 0.0, 0.0, 193.0, 0.0, 1.0, 1.0, 0.0, 0.0, 1.0, 1.0, 256.0, 1.0, 1.606467734439385E9, 2020-11-27 14:47:14.439
253.0, -26200.916015625, 16342.8798828125, -26469.515625, 51502.08203125, 3248.9599609375, 1499.3773193359375, 26935.728515625, 34392.875, 0.0, 0.0, 0.0, 193.0, 0.0, 1.0, 1.0, 0.0, 0.0, 1.0, 1.0, 256.0, 1.0, 1.60646773443939E9, 2020-11-27 14:47:14.439
254.0, -26169.287109375, 16366.3486328125, -26442.08984375, 51526.53515625, 3251.26220703125, 1506.3287353515625, 26971.693359375, 34372.9140625, 0.0, 0.0, 0.0, 193.0, 0.0, 1.0, 1.0, 0.0, 0.0, 1.0, 1.0, 256.0, 1.0, 1.606467734439394E9, 2020-11-27 14:47:14.439
255.0, -26268.9765625, 16261.1171875, -26542.830078125, 51476.9140625, 3188.72216796875, 1452.9527587890625, 26901.708984375, 34321.5703125, 0.0, 0.0, 0.0, 193.0, 0.0, 1.0, 1.0, 0.0, 0.0, 1.0, 1.0, 256.0, 1.0, 1.606467734439399E9, 2020-11-27 14:47:14.439
0.0, -26389.36328125, 16135.7236328125, -26664.7578125, 51414.015625, 3132.26171875, 1397.2745361328125, 26814.58203125, 34278.23046875, 0.0, 0.0, 0.0, 193.0, 0.0, 1.0, 1.0, 0.0, 0.0, 1.0, 1.0, 256.0, 1.0, 1.606467734499312E9, 2020-11-27 14:47:14.499
1.0, -26430.35546875, 16095.7587890625, -26706.130859375, 51370.02734375, 3126.092529296875, 1389.563232421875, 26778.037109375, 34290.14453125, 0.0, 0.0, 0.0, 193.0, 0.0, 1.0, 1.0, 0.0, 0.0, 1.0, 1.0, 256.0, 1.0, 1.60646773449933E9, 2020-11-27 14:47:14.499
2.0, -26197.49609375, 16339.0126953125, -26470.3203125, 51489.54296875, 3251.1953125, 1513.0341796875, 26940.087890625, 34393.4765625, 0.0, 0.0, 0.0, 193.0, 0.0, 1.0, 1.0, 0.0, 0.0, 1.0, 1.0, 256.0, 1.0, 1.606467734499335E9, 2020-11-27 14:47:14.499
3.0, -26175.27734375, 16357.9443359375, -26449.130859375, 51510.734375, 3239.639404296875, 1498.594970703125, 26962.953125, 34364.30859375, 0.0, 0.0, 0.0, 193.0, 0.0, 1.0, 1.0, 0.0, 0.0, 1.0, 1.0, 256.0, 1.0, 1.606467734499339E9, 2020-11-27 14:47:14.499
4.0, -26276.75390625, 16256.2890625, -26547.880859375, 51471.91015625, 3177.32275390625, 1443.78857421875, 26895.986328125, 34314.64453125, 0.0, 0.0, 0.0, 193.0, 0.0, 1.0, 1.0, 0.0, 0.0, 1.0, 1.0, 256.0, 1.0, 1.606467734499343E9, 2020-11-27 14:47:14.499
5.0, -26393.744140625, 16135.0087890625, -26667.126953125, 51426.64453125, 3123.32080078125, 1387.3280029296875, 26812.705078125, 34273.76171875, 0.0, 0.0, 0.0, 193.0, 0.0, 1.0, 1.0, 0.0, 0.0, 1.0, 1.0, 256.0, 1.0, 1.606467734499347E9, 2020-11-27 14:47:14.499
6.0, -26432.703125, 16098.8876953125, -26704.232421875, 51397.92578125, 3120.504638671875, 1383.6400146484375, 26784.2734375, 34289.83203125, 0.0, 0.0, 0.0, 193.0, 0.0, 1.0, 1.0, 0.0, 0.0, 1.0, 1.0, 256.0, 1.0, 1.606467734499351E9, 2020-11-27 14:47:14.499
7.0, -26203.306640625, 16342.0751953125, -26471.974609375, 51495.265625, 3246.9931640625, 1494.54931640625, 26939.953125, 34393.69921875, 0.0, 0.0, 0.0, 193.0, 0.0, 1.0, 1.0, 0.0, 0.0, 1.0, 1.0, 256.0, 1.0, 1.606467734499355E9, 2020-11-27 14:47:14.499
8.0, -26176.08203125, 16360.6494140625, -26446.962890625, 51518.3984375, 3239.37109375, 1494.5269775390625, 26968.630859375, 34368.21875, 0.0, 0.0, 0.0, 193.0, 0.0, 1.0, 1.0, 0.0, 0.0, 1.0, 1.0, 256.0, 1.0, 1.60646773449936E9, 2020-11-27 14:47:14.499
9.0, -26276.017578125, 16256.490234375, -26545.802734375, 51458.25, 3178.5966796875, 1448.5047607421875, 26902.849609375, 34315.2890625, 0.0, 0.0, 0.0, 193.0, 0.0, 1.0, 1.0, 0.0, 0.0, 1.0, 1.0, 256.0, 1.0, 1.606467734499364E9, 2020-11-27 14:47:14.499
10.0, -26397.275390625, 16134.2705078125, -26664.244140625, 51382.9921875, 3125.198486328125, 1392.1336669921875, 26817.80078125, 34275.4609375, 0.0, 0.0, 0.0, 193.0, 0.0, 1.0, 1.0, 0.0, 0.0, 1.0, 1.0, 256.0, 1.0, 1.606467734499368E9, 2020-11-27 14:47:14.499
11.0, -26434.78125, 16095.580078125, -26707.13671875, 51398.23828125, 3116.101318359375, 1367.256103515625, 26772.650390625, 34289.2734375, 0.0, 0.0, 0.0, 193.0, 0.0, 1.0, 1.0, 0.0, 0.0, 1.0, 1.0, 256.0, 1.0, 1.606467734499373E9, 2020-11-27 14:47:14.499
12.0, -26201.853515625, 16341.0244140625, -26470.25390625, 51509.30078125, 3238.1640625, 1484.4910888671875, 26930.185546875, 34395.578125, 0.0, 0.0, 0.0, 193.0, 0.0, 1.0, 1.0, 0.0, 0.0, 1.0, 1.0, 256.0, 1.0, 1.606467734499377E9, 2020-11-27 14:47:14.499
13.0, -26175.34375, 16362.9072265625, -26441.755859375, 51507.1328125, 3242.67919921875, 1495.35400390625, 26965.724609375, 34371.90625, 0.0, 0.0, 0.0, 193.0, 0.0, 1.0, 1.0, 0.0, 0.0, 1.0, 1.0, 256.0, 1.0, 1.606467734499381E9, 2020-11-27 14:47:14.499
14.0, -26273.111328125, 16260.46875, -26541.779296875, 51476.71484375, 3192.208984375, 1451.030517578125, 26899.720703125, 34319.89453125, 0.0, 0.0, 0.0, 193.0, 0.0, 1.0, 1.0, 0.0, 0.0, 1.0, 1.0, 256.0, 1.0, 1.606467734499386E9, 2020-11-27 14:47:14.499
15.0, -26388.15625, 16141.490234375, -26657.8515625, 51416.20703125, 3125.33251953125, 1392.20068359375, 26818.203125, 34278.4765625, 0.0, 0.0, 0.0, 193.0, 0.0, 1.0, 1.0, 0.0, 0.0, 1.0, 1.0, 256.0, 1.0, 1.606467734559335E9, 2020-11-27 14:47:14.559
16.0, -26425.908203125, 16101.9951171875, -26697.392578125, 51382.0546875, 3120.303466796875, 1393.5865478515625, 26786.552734375, 34298.1484375, 0.0, 0.0, 0.0, 193.0, 0.0, 1.0, 1.0, 0.0, 0.0, 1.0, 1.0, 256.0, 1.0, 1.60646773455935E9, 2020-11-27 14:47:14.559
17.0, -26198.791015625, 16340.33203125, -26470.521484375, 51484.76171875, 3242.254638671875, 1504.5628662109375, 26935.505859375, 34396.83203125, 0.0, 0.0, 0.0, 193.0, 0.0, 1.0, 1.0, 0.0, 0.0, 1.0, 1.0, 256.0, 1.0, 1.606467734559354E9, 2020-11-27 14:47:14.559
18.0, -26168.6171875, 16366.1259765625, -26443.72265625, 51530.9609375, 3241.49462890625, 1492.9400634765625, 26968.51953125, 34372.4453125, 0.0, 0.0, 0.0, 193.0, 0.0, 1.0, 1.0, 0.0, 0.0, 1.0, 1.0, 256.0, 1.0, 1.606467734559358E9, 2020-11-27 14:47:14.559
19.0, -26265.556640625, 16260.357421875, -26543.388671875, 51501.63671875, 3181.971923828125, 1440.1451416015625, 26900.345703125, 34319.40234375, 0.0, 0.0, 0.0, 193.0, 0.0, 1.0, 1.0, 0.0, 0.0, 1.0, 1.0, 256.0, 1.0, 1.606467734559362E9, 2020-11-27 14:47:14.559
20.0, -26388.84765625, 16136.953125, -26660.533203125, 51436.859375, 3127.187744140625, 1392.446533203125, 26814.806640625, 34278.56640625, 0.0, 0.0, 0.0, 193.0, 0.0, 1.0, 1.0, 0.0, 0.0, 1.0, 1.0, 256.0, 1.0, 1.606467734559366E9, 2020-11-27 14:47:14.559
21.0, -26430.84765625, 16101.212890625, -26697.927734375, 51367.99609375, 3127.299560546875, 1393.5418701171875, 26781.255859375, 34293.56640625, 0.0, 0.0, 0.0, 193.0, 0.0, 1.0, 1.0, 0.0, 0.0, 1.0, 1.0, 256.0, 1.0, 1.606467734559485E9, 2020-11-27 14:47:14.559
22.0, -26195.595703125, 16342.5224609375, -26468.3984375, 51494.75, 3257.610107421875, 1504.607666015625, 26942.03125, 34398.4609375, 0.0, 0.0, 0.0, 193.0, 0.0, 1.0, 1.0, 0.0, 0.0, 1.0, 1.0, 256.0, 1.0, 1.606467734559491E9, 2020-11-27 14:47:14.559
23.0, -26163.498046875, 16373.1435546875, -26433.1953125, 51555.50390625, 3261.27587890625, 1504.9205322265625, 26984.5, 34381.765625, 0.0, 0.0, 0.0, 193.0, 0.0, 1.0, 1.0, 0.0, 0.0, 1.0, 1.0, 256.0, 1.0, 1.606467734559494E9, 2020-11-27 14:47:14.559
24.0, -26271.970703125, 16259.6416015625, -26542.44921875, 51491.46484375, 3189.258544921875, 1440.8828125, 26907.453125, 34317.37109375, 0.0, 0.0, 0.0, 193.0, 0.0, 1.0, 1.0, 0.0, 0.0, 1.0, 1.0, 256.0, 1.0, 1.606467734559537E9, 2020-11-27 14:47:14.559
25.0, -26387.73046875, 16134.78515625, -26664.177734375, 51422.51171875, 3126.986572265625, 1385.9422607421875, 26818.626953125, 34274.03125, 0.0, 0.0, 0.0, 193.0, 0.0, 1.0, 1.0, 0.0, 0.0, 1.0, 1.0, 256.0, 1.0, 1.606467734559541E9, 2020-11-27 14:47:14.559
26.0, -26424.611328125, 16101.8388671875, -26698.30859375, 51409.66015625, 3130.093505859375, 1388.8927001953125, 26783.71484375, 34295.30859375, 0.0, 0.0, 0.0, 193.0, 0.0, 1.0, 1.0, 0.0, 0.0, 1.0, 1.0, 256.0, 1.0, 1.606467734559545E9, 2020-11-27 14:47:14.559
27.0, -26192.353515625, 16345.0029296875, -26465.828125, 51495.9140625, 3251.016357421875, 1501.5677490234375, 26939.953125, 34402.41796875, 0.0, 0.0, 0.0, 193.0, 0.0, 1.0, 1.0, 0.0, 0.0, 1.0, 1.0, 256.0, 1.0, 1.606467734559549E9, 2020-11-27 14:47:14.559
28.0, -26164.66015625, 16364.806640625, -26442.91796875, 51523.40625, 3247.641357421875, 1498.3267822265625, 26967.958984375, 34374.58984375, 0.0, 0.0, 0.0, 193.0, 0.0, 1.0, 1.0, 0.0, 0.0, 1.0, 1.0, 256.0, 1.0, 1.606467734559553E9, 2020-11-27 14:47:14.559
29.0, -26263.90234375, 16259.955078125, -26545.69140625, 51473.6953125, 3185.838623046875, 1444.637939453125, 26899.49609375, 34315.15625, 0.0, 0.0, 0.0, 193.0, 0.0, 1.0, 1.0, 0.0, 0.0, 1.0, 1.0, 256.0, 1.0, 1.606467734559557E9, 2020-11-27 14:47:14.559
30.0, -26380.734375, 16140.88671875, -26660.064453125, 51408.18359375, 3134.11669921875, 1395.7769775390625, 26816.37109375, 34278.87890625, 0.0, 0.0, 0.0, 193.0, 0.0, 1.0, 1.0, 0.0, 0.0, 1.0, 1.0, 256.0, 1.0, 1.606467734619346E9, 2020-11-27 14:47:14.619
31.0, -26422.755859375, 16105.4375, -26696.720703125, 51424.12109375, 3128.32763671875, 1390.904296875, 26783.37890625, 34297.20703125, 0.0, 0.0, 0.0, 193.0, 0.0, 1.0, 1.0, 0.0, 0.0, 1.0, 1.0, 256.0, 1.0, 1.606467734619366E9, 2020-11-27 14:47:14.619
32.0, -26197.5625, 16341.8740234375, -26469.13671875, 51521.68359375, 3243.416748046875, 1492.15771484375, 26937.115234375, 34398.4609375, 0.0, 0.0, 0.0, 193.0, 0.0, 1.0, 1.0, 0.0, 0.0, 1.0, 1.0, 256.0, 1.0, 1.60646773461937E9, 2020-11-27 14:47:14.619
33.0, -26168.37109375, 16365.767578125, -26441.576171875, 51519.31640625, 3238.946533203125, 1497.16455078125, 26969.189453125, 34375.171875, 0.0, 0.0, 0.0, 193.0, 0.0, 1.0, 1.0, 0.0, 0.0, 1.0, 1.0, 256.0, 1.0, 1.606467734619374E9, 2020-11-27 14:47:14.619
34.0, -26270.361328125, 16257.2724609375, -26546.025390625, 51458.38671875, 3184.31884765625, 1442.2685546875, 26897.306640625, 34323.76171875, 0.0, 0.0, 0.0, 193.0, 0.0, 1.0, 1.0, 0.0, 0.0, 1.0, 1.0, 256.0, 1.0, 1.606467734619378E9, 2020-11-27 14:47:14.619
35.0, -26383.9765625, 16138.763671875, -26657.560546875, 51411.3359375, 3131.45703125, 1398.2357177734375, 26820.4375, 34284.6015625, 0.0, 0.0, 0.0, 193.0, 0.0, 1.0, 1.0, 0.0, 0.0, 1.0, 1.0, 256.0, 1.0, 1.606467734619407E9, 2020-11-27 14:47:14.619
36.0, -26425.595703125, 16101.81640625, -26695.55859375, 51394.94921875, 3129.646484375, 1398.548583984375, 26788.474609375, 34300.4921875, 0.0, 0.0, 0.0, 193.0, 0.0, 1.0, 1.0, 0.0, 0.0, 1.0, 1.0, 256.0, 1.0, 1.606467734619411E9, 2020-11-27 14:47:14.619
37.0, -26198.0546875, 16336.3525390625, -26473.2265625, 51494.75, 3254.011474609375, 1498.304443359375, 26941.65234375, 34404.20703125, 0.0, 0.0, 0.0, 193.0, 0.0, 1.0, 1.0, 0.0, 0.0, 1.0, 1.0, 256.0, 1.0, 1.606467734619415E9, 2020-11-27 14:47:14.619
38.0, -26169.17578125, 16359.5537109375, -26449.130859375, 51528.859375, 3248.46826171875, 1486.94970703125, 26960.29296875, 34375.84375, 0.0, 0.0, 0.0, 193.0, 0.0, 1.0, 1.0, 0.0, 0.0, 1.0, 1.0, 256.0, 1.0, 1.606467734619419E9, 2020-11-27 14:47:14.619
39.0, -26266.427734375, 16258.4345703125, -26544.974609375, 51497.27734375, 3191.7841796875, 1437.239501953125, 26900.412109375, 34325.21484375, 0.0, 0.0, 0.0, 193.0, 0.0, 1.0, 1.0, 0.0, 0.0, 1.0, 1.0, 256.0, 1.0, 1.606467734619422E9, 2020-11-27 14:47:14.619
40.0, -26386.61328125, 16135.4775390625, -26662.9921875, 51445.421875, 3131.993408203125, 1382.7459716796875, 26817.755859375, 34281.83203125, 0.0, 0.0, 0.0, 193.0, 0.0, 1.0, 1.0, 0.0, 0.0, 1.0, 1.0, 256.0, 1.0, 1.606467734619426E9, 2020-11-27 14:47:14.619
41.0, -26431.47265625, 16093.880859375, -26704.65625, 51403.734375, 3123.94677734375, 1375.4815673828125, 26780.18359375, 34297.20703125, 0.0, 0.0, 0.0, 193.0, 0.0, 1.0, 1.0, 0.0, 0.0, 1.0, 1.0, 256.0, 1.0, 1.606467734619431E9, 2020-11-27 14:47:14.619
42.0, -26200.53515625, 16334.8779296875, -26476.556640625, 51497.8828125, 3237.67236328125, 1488.76025390625, 26934.052734375, 34399.66796875, 0.0, 0.0, 0.0, 193.0, 0.0, 1.0, 1.0, 0.0, 0.0, 1.0, 1.0, 256.0, 1.0, 1.606467734619435E9, 2020-11-27 14:47:14.619
43.0, -26167.90234375, 16362.7724609375, -26442.470703125, 51519.046875, 3237.717041015625, 1488.15673828125, 26965.791015625, 34375.70703125, 0.0, 0.0, 0.0, 193.0, 0.0, 1.0, 1.0, 0.0, 0.0, 1.0, 1.0, 256.0, 1.0, 1.606467734619439E9, 2020-11-27 14:47:14.619
44.0, -26273.15625, 16259.7314453125, -26538.068359375, 51466.1171875, 3175.981689453125, 1437.0830078125, 26898.9609375, 34324.87890625, 0.0, 0.0, 0.0, 193.0, 0.0, 1.0, 1.0, 0.0, 0.0, 1.0, 1.0, 256.0, 1.0, 1.606467734619443E9, 2020-11-27 14:47:14.619
45.0, -26394.705078125, 16134.13671875, -26662.8359375, 51417.59375, 3115.85546875, 1379.9072265625, 26811.251953125, 34278.92578125, 0.0, 0.0, 0.0, 193.0, 0.0, 1.0, 1.0, 0.0, 0.0, 1.0, 1.0, 256.0, 1.0, 1.606467734680356E9, 2020-11-27 14:47:14.680
46.0, -26435.2734375, 16090.4169921875, -26709.26171875, 51399.265625, 3109.976806640625, 1371.0782470703125, 26775.220703125, 34293.453125, 0.0, 0.0, 0.0, 193.0, 0.0, 1.0, 1.0, 0.0, 0.0, 1.0, 1.0, 256.0, 1.0, 1.606467734680374E9, 2020-11-27 14:47:14.680
47.0, -26204.4921875, 16334.609375, -26474.478515625, 51493.8125, 3234.721923828125, 1487.709716796875, 26935.505859375, 34401.1875, 0.0, 0.0, 0.0, 193.0, 0.0, 1.0, 1.0, 0.0, 0.0, 1.0, 1.0, 256.0, 1.0, 1.606467734680409E9, 2020-11-27 14:47:14.680
48.0, -26173.490234375, 16356.7373046875, -26449.041015625, 51501.7265625, 3238.56640625, 1489.56494140625, 26963.490234375, 34374.65625, 0.0, 0.0, 0.0, 193.0, 0.0, 1.0, 1.0, 0.0, 0.0, 1.0, 1.0, 256.0, 1.0, 1.606467734680413E9, 2020-11-27 14:47:14.680
49.0, -26271.009765625, 16250.947265625, -26550.2734375, 51472.01953125, 3188.275146484375, 1447.4765625, 26894.98046875, 34320.41015625, 0.0, 0.0, 0.0, 193.0, 0.0, 1.0, 1.0, 0.0, 0.0, 1.0, 1.0, 256.0, 1.0, 1.606467734680417E9, 2020-11-27 14:47:14.680
50.0, -26386.14453125, 16133.8466796875, -26664.46875, 51416.1640625, 3134.586181640625, 1399.8673095703125, 26812.279296875, 34277.96484375, 0.0, 0.0, 0.0, 193.0, 0.0, 1.0, 1.0, 0.0, 0.0, 1.0, 1.0, 256.0, 1.0, 1.606467734680422E9, 2020-11-27 14:47:14.680
51.0, -26428.880859375, 16096.5859375, -26701.146484375, 51382.96875, 3116.34716796875, 1393.20654296875, 26779.53515625, 34290.01171875, 0.0, 0.0, 0.0, 193.0, 0.0, 1.0, 1.0, 0.0, 0.0, 1.0, 1.0, 256.0, 1.0, 1.606467734680425E9, 2020-11-27 14:47:14.680
52.0, -26190.8125, 16340.15234375, -26467.52734375, 51469.16015625, 3257.25244140625, 1512.6319580078125, 26939.05859375, 34391.2421875, 0.0, 0.0, 0.0, 193.0, 0.0, 1.0, 1.0, 0.0, 0.0, 1.0, 1.0, 256.0, 1.0, 1.606467734680429E9, 2020-11-27 14:47:14.680
53.0, -26150.84765625, 16374.216796875, -26430.53515625, 51529.328125, 3272.429443359375, 1521.8408203125, 26979.470703125, 34368.82421875, 0.0, 0.0, 0.0, 193.0, 0.0, 1.0, 1.0, 0.0, 0.0, 1.0, 1.0, 256.0, 1.0, 1.606467734680433E9, 2020-11-27 14:47:14.680
54.0, -26239.716796875, 16278.3505859375, -26524.5234375, 51505.078125, 3229.737548828125, 1471.8399658203125, 26920.5078125, 34324.9453125, 0.0, 0.0, 0.0, 193.0, 0.0, 1.0, 1.0, 0.0, 0.0, 1.0, 1.0, 256.0, 1.0, 1.606467734680437E9, 2020-11-27 14:47:14.680
55.0, -26346.693359375, 16165.8310546875, -26632.9296875, 51504.36328125, 3193.6171875, 1426.845947265625, 26848.982421875, 34296.046875, 0.0, 0.0, 0.0, 193.0, 0.0, 1.0, 1.0, 0.0, 0.0, 1.0, 1.0, 256.0, 1.0, 1.606467734680441E9, 2020-11-27 14:47:14.680
56.0, -26387.708984375, 16127.85546875, -26669.943359375, 51480.828125, 3189.68310546875, 1424.18603515625, 26818.78515625, 34321.4375, 0.0, 0.0, 0.0, 193.0, 0.0, 1.0, 1.0, 0.0, 0.0, 1.0, 1.0, 256.0, 1.0, 1.606467734680446E9, 2020-11-27 14:47:14.680
57.0, -26166.001953125, 16364.2255859375, -26441.576171875, 51550.85546875, 3308.303955078125, 1536.3470458984375, 26973.390625, 34436.078125, 0.0, 0.0, 0.0, 193.0, 0.0, 1.0, 1.0, 0.0, 0.0, 1.0, 1.0, 256.0, 1.0, 1.60646773468045E9, 2020-11-27 14:47:14.680
58.0, -26143.314453125, 16382.6435546875, -26419.671875, 51537.77734375, 3291.1376953125, 1534.8048095703125, 26998.314453125, 34408.98828125, 0.0, 0.0, 0.0, 193.0, 0.0, 1.0, 1.0, 0.0, 0.0, 1.0, 1.0, 256.0, 1.0, 1.606467734680454E9, 2020-11-27 14:47:14.680
59.0, -26259.923828125, 16264.537109375, -26533.888671875, 51478.078125, 3203.630615234375, 1463.1004638671875, 26915.611328125, 34343.921875, 0.0, 0.0, 0.0, 193.0, 0.0, 1.0, 1.0, 0.0, 0.0, 1.0, 1.0, 256.0, 1.0, 1.606467734680458E9, 2020-11-27 14:47:14.680
60.0, -26386.166015625, 16138.16015625, -26655.572265625, 51424.6328125, 3127.903076171875, 1393.9888916015625, 26821.154296875, 34298.796875, 0.0, 0.0, 0.0, 193.0, 0.0, 1.0, 1.0, 0.0, 0.0, 1.0, 1.0, 256.0, 1.0, 1.606467734739421E9, 2020-11-27 14:47:14.739
61.0, -26438.939453125, 16095.6689453125, -26697.19140625, 51408.1171875, 3107.74169921875, 1373.559326171875, 26783.603515625, 34309.76953125, 0.0, 0.0, 0.0, 193.0, 0.0, 1.0, 1.0, 0.0, 0.0, 1.0, 1.0, 256.0, 1.0, 1.60646773473944E9, 2020-11-27 14:47:14.739
62.0, -26213.72265625, 16330.6533203125, -26475.126953125, 51499.9140625, 3234.945556640625, 1486.6815185546875, 26928.353515625, 34401.92578125, 0.0, 0.0, 0.0, 193.0, 0.0, 1.0, 1.0, 0.0, 0.0, 1.0, 1.0, 256.0, 1.0, 1.606467734739444E9, 2020-11-27 14:47:14.739
63.0, -26174.47265625, 16360.5595703125, -26444.951171875, 51525.23828125, 3244.914306640625, 1492.2247314453125, 26954.056640625, 34372.64453125, 0.0, 0.0, 0.0, 193.0, 0.0, 1.0, 1.0, 0.0, 0.0, 1.0, 1.0, 256.0, 1.0, 1.606467734739447E9, 2020-11-27 14:47:14.739
64.0, -26272.26171875, 16261.36328125, -26539.990234375, 51477.80859375, 3182.30712890625, 1442.5592041015625, 26895.583984375, 34321.99609375, 0.0, 0.0, 0.0, 193.0, 0.0, 1.0, 1.0, 0.0, 0.0, 1.0, 1.0, 256.0, 1.0, 1.606467734739451E9, 2020-11-27 14:47:14.739
65.0, -26384.53515625, 16138.5400390625, -26655.572265625, 51412.609375, 3123.52197265625, 1394.346435546875, 26814.716796875, 34281.31640625, 0.0, 0.0, 0.0, 193.0, 0.0, 1.0, 1.0, 0.0, 0.0, 1.0, 1.0, 256.0, 1.0, 1.606467734739455E9, 2020-11-27 14:47:14.739
66.0, -26429.953125, 16093.9033203125, -26703.046875, 51390.703125, 3112.94970703125, 1384.4447021484375, 26772.583984375, 34293.7890625, 0.0, 0.0, 0.0, 193.0, 0.0, 1.0, 1.0, 0.0, 0.0, 1.0, 1.0, 256.0, 1.0, 1.606467734739459E9, 2020-11-27 14:47:14.739
67.0, -26202.166015625, 16334.2294921875, -26473.60546875, 51467.59375, 3237.60546875, 1496.5162353515625, 26929.08984375, 34400.13671875, 0.0, 0.0, 0.0, 193.0, 0.0, 1.0, 1.0, 0.0, 0.0, 1.0, 1.0, 256.0, 1.0, 1.606467734739462E9, 2020-11-27 14:47:14.739
68.0, -26166.962890625, 16364.5166015625, -26440.75, 51514.64453125, 3243.08154296875, 1494.795166015625, 26968.51953125, 34380.984375, 0.0, 0.0, 0.0, 193.0, 0.0, 1.0, 1.0, 0.0, 0.0, 1.0, 1.0, 256.0, 1.0, 1.606467734739467E9, 2020-11-27 14:47:14.739
69.0, -26269.490234375, 16258.412109375, -26544.349609375, 51485.18359375, 3184.5869140625, 1435.428955078125, 26895.541015625, 34325.05859375, 0.0, 0.0, 0.0, 193.0, 0.0, 1.0, 1.0, 0.0, 0.0, 1.0, 1.0, 256.0, 1.0, 1.60646773473947E9, 2020-11-27 14:47:14.739
70.0, -26382.544921875, 16139.0537109375, -26658.791015625, 51433.0390625, 3123.52197265625, 1383.0364990234375, 26810.3359375, 34282.3203125, 0.0, 0.0, 0.0, 193.0, 0.0, 1.0, 1.0, 0.0, 0.0, 1.0, 1.0, 256.0, 1.0, 1.606467734739508E9, 2020-11-27 14:47:14.739
71.0, -26427.271484375, 16094.1044921875, -26702.5546875, 51401.96875, 3116.011962890625, 1378.00732421875, 26772.740234375, 34294.59375, 0.0, 0.0, 0.0, 193.0, 0.0, 1.0, 1.0, 0.0, 0.0, 1.0, 1.0, 256.0, 1.0, 1.606467734739512E9, 2020-11-27 14:47:14.739
72.0, -26201.787109375, 16334.5205078125, -26475.126953125, 51483.1953125, 3236.420654296875, 1485.3404541015625, 26923.546875, 34395.1328125, 0.0, 0.0, 0.0, 193.0, 0.0, 1.0, 1.0, 0.0, 0.0, 1.0, 1.0, 256.0, 1.0, 1.606467734739516E9, 2020-11-27 14:47:14.739
73.0, -26162.470703125, 16365.5439453125, -26440.75, 51503.46875, 3241.3828125, 1491.46484375, 26963.7578125, 34377.67578125, 0.0, 0.0, 0.0, 193.0, 0.0, 1.0, 1.0, 0.0, 0.0, 1.0, 1.0, 256.0, 1.0, 1.606467734739521E9, 2020-11-27 14:47:14.739
74.0, -26261.64453125, 16264.1796875, -26536.97265625, 51465.6484375, 3189.50439453125, 1443.833251953125, 26903.341796875, 34327.71875, 0.0, 0.0, 0.0, 193.0, 0.0, 1.0, 1.0, 0.0, 0.0, 1.0, 1.0, 256.0, 1.0, 1.606467734739526E9, 2020-11-27 14:47:14.739
75.0, -26377.986328125, 16145.15625, -26653.26953125, 51432.01171875, 3130.71923828125, 1391.9324951171875, 26819.1875, 34285.83203125, 0.0, 0.0, 0.0, 193.0, 0.0, 1.0, 1.0, 0.0, 0.0, 1.0, 1.0, 256.0, 1.0, 1.606467734799357E9, 2020-11-27 14:47:14.799
76.0, -26430.35546875, 16101.4365234375, -26696.67578125, 51390.61328125, 3116.6376953125, 1383.260009765625, 26780.205078125, 34293.65625, 0.0, 0.0, 0.0, 193.0, 0.0, 1.0, 1.0, 0.0, 0.0, 1.0, 1.0, 256.0, 1.0, 1.606467734799374E9, 2020-11-27 14:47:14.799
77.0, -26202.814453125, 16335.0791015625, -26470.767578125, 51473.33984375, 3242.1650390625, 1497.857421875, 26935.326171875, 34400.20703125, 0.0, 0.0, 0.0, 193.0, 0.0, 1.0, 1.0, 0.0, 0.0, 1.0, 1.0, 256.0, 1.0, 1.606467734799379E9, 2020-11-27 14:47:14.799
78.0, -26162.55859375, 16365.0302734375, -26440.705078125, 51514.15234375, 3248.78125, 1497.790283203125, 26967.802734375, 34378.16796875, 0.0, 0.0, 0.0, 193.0, 0.0, 1.0, 1.0, 0.0, 0.0, 1.0, 1.0, 256.0, 1.0, 1.606467734799383E9, 2020-11-27 14:47:14.799
79.0, -26260.125, 16264.1123046875, -26538.76171875, 51486.7734375, 3194.578369140625, 1445.4873046875, 26899.162109375, 34325.8203125, 0.0, 0.0, 0.0, 193.0, 0.0, 1.0, 1.0, 0.0, 0.0, 1.0, 1.0, 256.0, 1.0, 1.606467734799387E9, 2020-11-27 14:47:14.799
80.0, -26378.9921875, 16140.9541015625, -26655.416015625, 51425.57421875, 3137.581298828125, 1394.4359130859375, 26820.1484375, 34286.1875, 0.0, 0.0, 0.0, 193.0, 0.0, 1.0, 1.0, 0.0, 0.0, 1.0, 1.0, 256.0, 1.0, 1.606467734799392E9, 2020-11-27 14:47:14.799
81.0, -26424.029296875, 16099.24609375, -26698.419921875, 51392.625, 3121.867919921875, 1383.751708984375, 26780.18359375, 34297.296875, 0.0, 0.0, 0.0, 193.0, 0.0, 1.0, 1.0, 0.0, 0.0, 1.0, 1.0, 256.0, 1.0, 1.606467734799396E9, 2020-11-27 14:47:14.799
82.0, -26200.669921875, 16336.1962890625, -26474.611328125, 51479.0390625, 3236.733642578125, 1489.4754638671875, 26922.49609375, 34397.41015625, 0.0, 0.0, 0.0, 193.0, 0.0, 1.0, 1.0, 0.0, 0.0, 1.0, 1.0, 256.0, 1.0, 1.6064677347994E9, 2020-11-27 14:47:14.799
83.0, -26162.380859375, 16366.974609375, -26440.458984375, 51495.7578125, 3245.69677734375, 1499.15380859375, 26959.578125, 34376.22265625, 0.0, 0.0, 0.0, 193.0, 0.0, 1.0, 1.0, 0.0, 0.0, 1.0, 1.0, 256.0, 1.0, 1.606467734799404E9, 2020-11-27 14:47:14.799
84.0, -26258.716796875, 16264.849609375, -26538.896484375, 51460.48828125, 3190.577392578125, 1450.9410400390625, 26896.8359375, 34327.44921875, 0.0, 0.0, 0.0, 193.0, 0.0, 1.0, 1.0, 0.0, 0.0, 1.0, 1.0, 256.0, 1.0, 1.606467734799409E9, 2020-11-27 14:47:14.799
85.0, -26375.52734375, 16144.0166015625, -26654.38671875, 51442.671875, 3120.6611328125, 1384.846923828125, 26817.353515625, 34286.03125, 0.0, 0.0, 0.0, 193.0, 0.0, 1.0, 1.0, 0.0, 0.0, 1.0, 1.0, 256.0, 1.0, 1.606467734799413E9, 2020-11-27 14:47:14.799
86.0, -26426.712890625, 16100.36328125, -26695.849609375, 51408.65234375, 3112.6591796875, 1379.01318359375, 26782.708984375, 34300.13671875, 0.0, 0.0, 0.0, 193.0, 0.0, 1.0, 1.0, 0.0, 0.0, 1.0, 1.0, 256.0, 1.0, 1.606467734799418E9, 2020-11-27 14:47:14.799
87.0, -26198.12109375, 16338.923828125, -26469.404296875, 51491.890625, 3242.522705078125, 1497.298583984375, 26934.38671875, 34403.109375, 0.0, 0.0, 0.0, 193.0, 0.0, 1.0, 1.0, 0.0, 0.0, 1.0, 1.0, 256.0, 1.0, 1.606467734799422E9, 2020-11-27 14:47:14.799
88.0, -26159.966796875, 16374.2841796875, -26433.1953125, 51517.88671875, 3253.36328125, 1504.6746826171875, 26969.568359375, 34382.01171875, 0.0, 0.0, 0.0, 193.0, 0.0, 1.0, 1.0, 0.0, 0.0, 1.0, 1.0, 256.0, 1.0, 1.606467734799427E9, 2020-11-27 14:47:14.799
89.0, -26256.66015625, 16270.6162109375, -26530.759765625, 51489.38671875, 3200.076904296875, 1451.2763671875, 26909.912109375, 34333.86328125, 0.0, 0.0, 0.0, 193.0, 0.0, 1.0, 1.0, 0.0, 0.0, 1.0, 1.0, 256.0, 1.0, 1.606467734799431E9, 2020-11-27 14:47:14.799
90.0, -26372.3984375, 16148.1064453125, -26647.927734375, 51444.88671875, 3141.0234375, 1397.0733642578125, 26820.7734375, 34287.77734375, 0.0, 0.0, 0.0, 193.0, 0.0, 1.0, 1.0, 0.0, 0.0, 1.0, 1.0, 256.0, 1.0, 1.606467734859374E9, 2020-11-27 14:47:14.859
91.0, -26426.66796875, 16101.927734375, -26694.3515625, 51415.046875, 3125.980712890625, 1386.4786376953125, 26780.294921875, 34301.3671875, 0.0, 0.0, 0.0, 193.0, 0.0, 1.0, 1.0, 0.0, 0.0, 1.0, 1.0, 256.0, 1.0, 1.606467734859391E9, 2020-11-27 14:47:14.859
92.0, -26201.96484375, 16338.87890625, -26470.767578125, 51483.171875, 3244.69091796875, 1502.8865966796875, 26929.828125, 34402.6640625, 0.0, 0.0, 0.0, 193.0, 0.0, 1.0, 1.0, 0.0, 0.0, 1.0, 1.0, 256.0, 1.0, 1.606467734859395E9, 2020-11-27 14:47:14.859
93.0, -26162.068359375, 16365.3212890625, -26439.251953125, 51494.90625, 3252.201171875, 1515.1800537109375, 26965.791015625, 34377.8984375, 0.0, 0.0, 0.0, 193.0, 0.0, 1.0, 1.0, 0.0, 0.0, 1.0, 1.0, 256.0, 1.0, 1.6064677348594E9, 2020-11-27 14:47:14.859
94.0, -26265.400390625, 16264.24609375, -26536.794921875, 51479.73046875, 3181.50244140625, 1442.4697265625, 26895.65234375, 34322.109375, 0.0, 0.0, 0.0, 193.0, 0.0, 1.0, 1.0, 0.0, 0.0, 1.0, 1.0, 256.0, 1.0, 1.606467734859437E9, 2020-11-27 14:47:14.859
95.0, -26373.873046875, 16148.7998046875, -26647.546875, 51452.9765625, 3124.14794921875, 1388.0208740234375, 26812.63671875, 34285.49609375, 0.0, 0.0, 0.0, 193.0, 0.0, 1.0, 1.0, 0.0, 0.0, 1.0, 1.0, 256.0, 1.0, 1.606467734859441E9, 2020-11-27 14:47:14.859
96.0, -26423.94140625, 16101.9501953125, -26696.36328125, 51430.6015625, 3116.391845703125, 1377.157958984375, 26770.9296875, 34298.21484375, 0.0, 0.0, 0.0, 193.0, 0.0, 1.0, 1.0, 0.0, 0.0, 1.0, 1.0, 256.0, 1.0, 1.606467734859445E9, 2020-11-27 14:47:14.859
97.0, -26195.662109375, 16339.83984375, -26470.275390625, 51517.05859375, 3239.7958984375, 1495.801025390625, 26926.876953125, 34399.625, 0.0, 0.0, 0.0, 193.0, 0.0, 1.0, 1.0, 0.0, 0.0, 1.0, 1.0, 256.0, 1.0, 1.60646773485945E9, 2020-11-27 14:47:14.859
98.0, -26156.390625, 16375.1328125, -26432.099609375, 51527.140625, 3253.49755859375, 1508.8768310546875, 26967.111328125, 34381.02734375, 0.0, 0.0, 0.0, 193.0, 0.0, 1.0, 1.0, 0.0, 0.0, 1.0, 1.0, 256.0, 1.0, 1.606467734859454E9, 2020-11-27 14:47:14.859
99.0, -26261.623046875, 16269.431640625, -26532.66015625, 51503.46875, 3192.11962890625, 1450.6058349609375, 26893.013671875, 34323.359375, 0.0, 0.0, 0.0, 193.0, 0.0, 1.0, 1.0, 0.0, 0.0, 1.0, 1.0, 256.0, 1.0, 1.606467734859459E9, 2020-11-27 14:47:14.859
100.0, -26374.095703125, 16150.431640625, -26647.2578125, 51447.07421875, 3130.898193359375, 1396.20166015625, 26817.98046875, 34282.5, 0.0, 0.0, 0.0, 193.0, 0.0, 1.0, 1.0, 0.0, 0.0, 1.0, 1.0, 256.0, 1.0, 1.606467734859463E9, 2020-11-27 14:47:14.859
101.0, -26416.20703125, 16105.302734375, -26690.84375, 51404.02734375, 3125.600830078125, 1395.151123046875, 26787.06640625, 34300.29296875, 0.0, 0.0, 0.0, 193.0, 0.0, 1.0, 1.0, 0.0, 0.0, 1.0, 1.0, 256.0, 1.0, 1.606467734859468E9, 2020-11-27 14:47:14.859
102.0, -26194.41015625, 16339.392578125, -26464.419921875, 51493.4765625, 3243.9755859375, 1511.73779296875, 26929.8046875, 34401.0546875, 0.0, 0.0, 0.0, 193.0, 0.0, 1.0, 1.0, 0.0, 0.0, 1.0, 1.0, 256.0, 1.0, 1.606467734859473E9, 2020-11-27 14:47:14.859
103.0, -26154.154296875, 16379.447265625, -26421.548828125, 51536.8828125, 3258.75, 1522.3773193359375, 26972.4296875, 34385.38671875, 0.0, 0.0, 0.0, 193.0, 0.0, 1.0, 1.0, 0.0, 0.0, 1.0, 1.0, 256.0, 1.0, 1.606467734859477E9, 2020-11-27 14:47:14.859
104.0, -26256.68359375, 16274.2373046875, -26521.685546875, 51500.05078125, 3199.562744140625, 1465.4027099609375, 26907.20703125, 34334.1328125, 0.0, 0.0, 0.0, 193.0, 0.0, 1.0, 1.0, 0.0, 0.0, 1.0, 1.0, 256.0, 1.0, 1.606467734859482E9, 2020-11-27 14:47:14.859
105.0, -26373.24609375, 16153.91796875, -26639.658203125, 51438.53515625, 3136.70947265625, 1408.9197998046875, 26824.1484375, 34289.67578125, 0.0, 0.0, 0.0, 193.0, 0.0, 1.0, 1.0, 0.0, 0.0, 1.0, 1.0, 256.0, 1.0, 1.606467734919388E9, 2020-11-27 14:47:14.919
106.0, -26423.44921875, 16109.169921875, -26688.697265625, 51417.19140625, 3120.95166015625, 1393.765380859375, 26780.630859375, 34300.96484375, 0.0, 0.0, 0.0, 193.0, 0.0, 1.0, 1.0, 0.0, 0.0, 1.0, 1.0, 256.0, 1.0, 1.606467734919406E9, 2020-11-27 14:47:14.919
107.0, -26201.630859375, 16338.0966796875, -26467.951171875, 51498.28515625, 3233.29150390625, 1497.097412109375, 26921.78125, 34398.125, 0.0, 0.0, 0.0, 193.0, 0.0, 1.0, 1.0, 0.0, 0.0, 1.0, 1.0, 256.0, 1.0, 1.60646773491941E9, 2020-11-27 14:47:14.919
108.0, -26155.98828125, 16373.0771484375, -26429.953125, 51532.63671875, 3242.50048828125, 1505.859375, 26959.310546875, 34374.546875, 0.0, 0.0, 0.0, 193.0, 0.0, 1.0, 1.0, 0.0, 0.0, 1.0, 1.0, 256.0, 1.0, 1.606467734919414E9, 2020-11-27 14:47:14.919
109.0, -26249.91015625, 16272.94140625, -26527.25, 51495.95703125, 3192.678466796875, 1451.9022216796875, 26895.49609375, 34329.57421875, 0.0, 0.0, 0.0, 193.0, 0.0, 1.0, 1.0, 0.0, 0.0, 1.0, 1.0, 256.0, 1.0, 1.606467734919418E9, 2020-11-27 14:47:14.919
110.0, -26366.65234375, 16153.3818359375, -26641.802734375, 51437.21875, 3140.978759765625, 1404.4271240234375, 26815.251953125, 34292.11328125, 0.0, 0.0, 0.0, 193.0, 0.0, 1.0, 1.0, 0.0, 0.0, 1.0, 1.0, 256.0, 1.0, 1.606467734919422E9, 2020-11-27 14:47:14.919
111.0, -26415.1796875, 16110.623046875, -26687.892578125, 51426.71484375, 3126.070068359375, 1391.552490234375, 26775.287109375, 34301.56640625, 0.0, 0.0, 0.0, 193.0, 0.0, 1.0, 1.0, 0.0, 0.0, 1.0, 1.0, 256.0, 1.0, 1.606467734919426E9, 2020-11-27 14:47:14.919
112.0, -26191.548828125, 16343.0361328125, -26465.359375, 51510.62109375, 3244.86962890625, 1499.5784912109375, 26922.853515625, 34400.5390625, 0.0, 0.0, 0.0, 193.0, 0.0, 1.0, 1.0, 0.0, 0.0, 1.0, 1.0, 256.0, 1.0, 1.60646773491943E9, 2020-11-27 14:47:14.919
113.0, -26155.49609375, 16372.9423828125, -26428.970703125, 51525.75390625, 3249.29541015625, 1511.5142822265625, 26963.82421875, 34381.40625, 0.0, 0.0, 0.0, 193.0, 0.0, 1.0, 1.0, 0.0, 0.0, 1.0, 1.0, 256.0, 1.0, 1.606467734919434E9, 2020-11-27 14:47:14.919
114.0, -26257.755859375, 16269.07421875, -26530.6484375, 51482.79296875, 3191.247802734375, 1456.3055419921875, 26893.86328125, 34327.11328125, 0.0, 0.0, 0.0, 193.0, 0.0, 1.0, 1.0, 0.0, 0.0, 1.0, 1.0, 256.0, 1.0, 1.606467734919438E9, 2020-11-27 14:47:14.919
115.0, -26376.30859375, 16146.564453125, -26648.552734375, 51447.72265625, 3134.13916015625, 1395.3299560546875, 26805.685546875, 34284.6484375, 0.0, 0.0, 0.0, 193.0, 0.0, 1.0, 1.0, 0.0, 0.0, 1.0, 1.0, 256.0, 1.0, 1.606467734919441E9, 2020-11-27 14:47:14.919
116.0, -26422.041015625, 16103.9619140625, -26691.423828125, 51436.68359375, 3115.94482421875, 1381.80712890625, 26768.291015625, 34298.6171875, 0.0, 0.0, 0.0, 193.0, 0.0, 1.0, 1.0, 0.0, 0.0, 1.0, 1.0, 256.0, 1.0, 1.606467734919446E9, 2020-11-27 14:47:14.919
117.0, -26196.35546875, 16342.8125, -26464.84375, 51513.4140625, 3238.231201171875, 1496.493896484375, 26923.30078125, 34403.22265625, 0.0, 0.0, 0.0, 193.0, 0.0, 1.0, 1.0, 0.0, 0.0, 1.0, 1.0, 256.0, 1.0, 1.606467734919482E9, 2020-11-27 14:47:14.919
118.0, -26157.6640625, 16373.6357421875, -26431.49609375, 51536.5703125, 3244.958984375, 1505.8369140625, 26957.96875, 34378.390625, 0.0, 0.0, 0.0, 193.0, 0.0, 1.0, 1.0, 0.0, 0.0, 1.0, 1.0, 256.0, 1.0, 1.606467734919486E9, 2020-11-27 14:47:14.919
119.0, -26255.51953125, 16270.1474609375, -26526.580078125, 51486.66015625, 3190.48779296875, 1460.217041015625, 26895.427734375, 34328.27734375, 0.0, 0.0, 0.0, 193.0, 0.0, 1.0, 1.0, 0.0, 0.0, 1.0, 1.0, 256.0, 1.0, 1.60646773491949E9, 2020-11-27 14:47:14.919
120.0, -26371.63671875, 16152.912109375, -26638.8984375, 51403.04296875, 3133.669677734375, 1412.7642822265625, 26814.626953125, 34290.28125, 0.0, 0.0, 0.0, 193.0, 0.0, 1.0, 1.0, 0.0, 0.0, 1.0, 1.0, 256.0, 1.0, 1.606467734979409E9, 2020-11-27 14:47:14.979
121.0, -26418.62109375, 16101.2353515625, -26691.669921875, 51370.25390625, 3116.481201171875, 1394.01123046875, 26772.896484375, 34302.9296875, 0.0, 0.0, 0.0, 193.0, 0.0, 1.0, 1.0, 0.0, 0.0, 1.0, 1.0, 256.0, 1.0, 1.606467734979426E9, 2020-11-27 14:47:14.979
122.0, -26190.1640625, 16337.91796875, -26471.169921875, 51504.140625, 3236.3759765625, 1497.14208984375, 26922.5625, 34407.0234375, 0.0, 0.0, 0.0, 193.0, 0.0, 1.0, 1.0, 0.0, 0.0, 1.0, 1.0, 256.0, 1.0, 1.606467734979431E9, 2020-11-27 14:47:14.979
123.0, -26155.876953125, 16369.0087890625, -26434.55859375, 51563.328125, 3240.131103515625, 1499.55615234375, 26964.763671875, 34386.125, 0.0, 0.0, 0.0, 193.0, 0.0, 1.0, 1.0, 0.0, 0.0, 1.0, 1.0, 256.0, 1.0, 1.606467734979435E9, 2020-11-27 14:47:14.979
124.0, -26259.296875, 16266.615234375, -26531.228515625, 51525.44140625, 3180.630859375, 1445.9566650390625, 26902.134765625, 34334.46875, 0.0, 0.0, 0.0, 193.0, 0.0, 1.0, 1.0, 0.0, 0.0, 1.0, 1.0, 256.0, 1.0, 1.606467734979439E9, 2020-11-27 14:47:14.979
125.0, -26371.705078125, 16148.77734375, -26643.033203125, 51473.6953125, 3120.6611328125, 1397.6322021484375, 26820.7734375, 34294.21484375, 0.0, 0.0, 0.0, 193.0, 0.0, 1.0, 1.0, 0.0, 0.0, 1.0, 1.0, 256.0, 1.0, 1.606467734979443E9, 2020-11-27 14:47:14.979
126.0, -26423.091796875, 16100.720703125, -26694.955078125, 51409.14453125, 3108.97119140625, 1380.7789306640625, 26766.4375, 34303.84765625, 0.0, 0.0, 0.0, 193.0, 0.0, 1.0, 1.0, 0.0, 0.0, 1.0, 1.0, 256.0, 1.0, 1.606467734979447E9, 2020-11-27 14:47:14.979
127.0, -26199.9765625, 16333.6259765625, -26474.0078125, 51494.953125, 3237.3818359375, 1496.8515625, 26905.978515625, 34403.37890625, 0.0, 0.0, 0.0, 193.0, 0.0, 1.0, 1.0, 0.0, 0.0, 1.0, 1.0, 256.0, 1.0, 1.60646773497945E9, 2020-11-27 14:47:14.979
128.0, -26155.607421875, 16372.451171875, -26429.86328125, 51511.24609375, 3251.86572265625, 1509.14501953125, 26951.798828125, 34387.44140625, 0.0, 0.0, 0.0, 193.0, 0.0, 1.0, 1.0, 0.0, 0.0, 1.0, 1.0, 256.0, 1.0, 1.606467734979454E9, 2020-11-27 14:47:14.979
129.0, -26250.53515625, 16273.3212890625, -26524.546875, 51480.22265625, 3197.640380859375, 1455.5008544921875, 26894.6015625, 34336.4375, 0.0, 0.0, 0.0, 193.0, 0.0, 1.0, 1.0, 0.0, 0.0, 1.0, 1.0, 256.0, 1.0, 1.606467734979458E9, 2020-11-27 14:47:14.979
130.0, -26363.92578125, 16148.642578125, -26645.982421875, 51439.1640625, 3129.065185546875, 1401.141357421875, 26815.23046875, 34294.34765625, 0.0, 0.0, 0.0, 193.0, 0.0, 1.0, 1.0, 0.0, 0.0, 1.0, 1.0, 256.0, 1.0, 1.606467734979462E9, 2020-11-27 14:47:14.979
131.0, -26419.291015625, 16096.5185546875, -26702.041015625, 51437.15234375, 3105.998291015625, 1374.7216796875, 26770.638671875, 34305.58984375, 0.0, 0.0, 0.0, 193.0, 0.0, 1.0, 1.0, 0.0, 0.0, 1.0, 1.0, 256.0, 1.0, 1.606467734979467E9, 2020-11-27 14:47:14.979
132.0, -26206.189453125, 16330.4970703125, -26476.400390625, 51549.1796875, 3227.234130859375, 1486.301513671875, 26917.9375, 34404.765625, 0.0, 0.0, 0.0, 193.0, 0.0, 1.0, 1.0, 0.0, 0.0, 1.0, 1.0, 256.0, 1.0, 1.606467734979471E9, 2020-11-27 14:47:14.979
133.0, -26164.548828125, 16366.818359375, -26435.564453125, 51559.125, 3233.69384765625, 1488.201416015625, 26952.693359375, 34380.42578125, 0.0, 0.0, 0.0, 193.0, 0.0, 1.0, 1.0, 0.0, 0.0, 1.0, 1.0, 256.0, 1.0, 1.606467734979475E9, 2020-11-27 14:47:14.979
134.0, -26258.537109375, 16265.54296875, -26535.744140625, 51485.02734375, 3169.52197265625, 1431.5621337890625, 26883.783203125, 34329.0390625, 0.0, 0.0, 0.0, 193.0, 0.0, 1.0, 1.0, 0.0, 0.0, 1.0, 1.0, 256.0, 1.0, 1.606467734979479E9, 2020-11-27 14:47:14.979
135.0, -26376.533203125, 16142.6083984375, -26652.0859375, 51426.22265625, 3117.308349609375, 1379.862548828125, 26800.568359375, 34291.5546875, 0.0, 0.0, 0.0, 193.0, 0.0, 1.0, 1.0, 0.0, 0.0, 1.0, 1.0, 256.0, 1.0, 1.606467735039398E9, 2020-11-27 14:47:15.039
136.0, -26432.076171875, 16095.333984375, -26698.53125, 51404.7421875, 3105.908935546875, 1369.80419921875, 26764.3125, 34300.3359375, 0.0, 0.0, 0.0, 193.0, 0.0, 1.0, 1.0, 0.0, 0.0, 1.0, 1.0, 256.0, 1.0, 1.606467735039416E9, 2020-11-27 14:47:15.039
137.0, -26206.01171875, 16332.486328125, -26467.90625, 51478.390625, 3237.67236328125, 1496.7174072265625, 26922.697265625, 34404.67578125, 0.0, 0.0, 0.0, 193.0, 0.0, 1.0, 1.0, 0.0, 0.0, 1.0, 1.0, 256.0, 1.0, 1.606467735039421E9, 2020-11-27 14:47:15.039
138.0, -26163.23046875, 16369.43359375, -26426.890625, 51509.4609375, 3252.245849609375, 1518.689208984375, 26967.802734375, 34391.19921875, 0.0, 0.0, 0.0, 193.0, 0.0, 1.0, 1.0, 0.0, 0.0, 1.0, 1.0, 256.0, 1.0, 1.606467735039424E9, 2020-11-27 14:47:15.039
139.0, -26261.421875, 16263.978515625, -26538.470703125, 51482.5703125, 3191.448974609375, 1437.7982177734375, 26888.029296875, 34332.90234375, 0.0, 0.0, 0.0, 193.0, 0.0, 1.0, 1.0, 0.0, 0.0, 1.0, 1.0, 256.0, 1.0, 1.606467735039428E9, 2020-11-27 14:47:15.039
140.0, -26379.572265625, 16142.4072265625, -26655.728515625, 51468.95703125, 3120.191650390625, 1368.6419677734375, 26798.01953125, 34288.3125, 0.0, 0.0, 0.0, 193.0, 0.0, 1.0, 1.0, 0.0, 0.0, 1.0, 1.0, 256.0, 1.0, 1.606467735039461E9, 2020-11-27 14:47:15.039
141.0, -26431.31640625, 16094.373046875, -26702.755859375, 51435.98828125, 3094.0625, 1358.0919189453125, 26757.115234375, 34299.578125, 0.0, 0.0, 0.0, 193.0, 0.0, 1.0, 1.0, 0.0, 0.0, 1.0, 1.0, 256.0, 1.0, 1.606467735039465E9, 2020-11-27 14:47:15.039
142.0, -26203.328125, 16331.2568359375, -26473.494140625, 51514.93359375, 3226.89892578125, 1483.999267578125, 26915.65625, 34408.609375, 0.0, 0.0, 0.0, 193.0, 0.0, 1.0, 1.0, 0.0, 0.0, 1.0, 1.0, 256.0, 1.0, 1.606467735039469E9, 2020-11-27 14:47:15.039
143.0, -26165.80078125, 16372.0263671875, -26424.431640625, 51506.48828125, 3238.1640625, 1507.893310546875, 26963.04296875, 34390.48046875, 0.0, 0.0, 0.0, 193.0, 0.0, 1.0, 1.0, 0.0, 0.0, 1.0, 1.0, 256.0, 1.0, 1.606467735039473E9, 2020-11-27 14:47:15.039
144.0, -26266.25, 16266.7724609375, -26530.89453125, 51466.9921875, 3181.770751953125, 1447.029541015625, 26895.3828125, 34333.70703125, 0.0, 0.0, 0.0, 193.0, 0.0, 1.0, 1.0, 0.0, 0.0, 1.0, 1.0, 256.0, 1.0, 1.606467735039477E9, 2020-11-27 14:47:15.039
145.0, -26380.556640625, 16143.904296875, -26652.21875, 51467.640625, 3124.4609375, 1378.566162109375, 26808.033203125, 34290.5234375, 0.0, 0.0, 0.0, 193.0, 0.0, 1.0, 1.0, 0.0, 0.0, 1.0, 1.0, 256.0, 1.0, 1.60646773503948E9, 2020-11-27 14:47:15.039
146.0, -26435.5859375, 16096.9658203125, -26698.46484375, 51446.1796875, 3109.73095703125, 1365.4456787109375, 26769.87890625, 34303.87109375, 0.0, 0.0, 0.0, 193.0, 0.0, 1.0, 1.0, 0.0, 0.0, 1.0, 1.0, 256.0, 1.0, 1.606467735039485E9, 2020-11-27 14:47:15.039
147.0, -26208.515625, 16329.3125, -26482.904296875, 51529.171875, 3234.3642578125, 1468.3531494140625, 26904.951171875, 34403.84765625, 0.0, 0.0, 0.0, 193.0, 0.0, 1.0, 1.0, 0.0, 0.0, 1.0, 1.0, 256.0, 1.0, 1.606467735039489E9, 2020-11-27 14:47:15.039
148.0, -26162.26953125, 16366.70703125, -26441.7109375, 51540.796875, 3236.532470703125, 1481.898193359375, 26947.373046875, 34386.7734375, 0.0, 0.0, 0.0, 193.0, 0.0, 1.0, 1.0, 0.0, 0.0, 1.0, 1.0, 256.0, 1.0, 1.606467735039493E9, 2020-11-27 14:47:15.039
149.0, -26261.755859375, 16262.2119140625, -26540.05859375, 51481.49609375, 3174.72998046875, 1429.97509765625, 26880.296875, 34329.8203125, 0.0, 0.0, 0.0, 193.0, 0.0, 1.0, 1.0, 0.0, 0.0, 1.0, 1.0, 256.0, 1.0, 1.606467735039497E9, 2020-11-27 14:47:15.039
150.0, -26388.087890625, 16139.27734375, -26656.48828125, 51423.96484375, 3113.73193359375, 1375.7498779296875, 26791.291015625, 34278.0546875, 0.0, 0.0, 0.0, 193.0, 0.0, 1.0, 1.0, 0.0, 0.0, 1.0, 1.0, 256.0, 1.0, 1.606467735100549E9, 2020-11-27 14:47:15.100
151.0, -26443.521484375, 16093.0986328125, -26702.578125, 51434.89453125, 3095.4482421875, 1355.4991455078125, 26762.94921875, 34297.8125, 0.0, 0.0, 0.0, 193.0, 0.0, 1.0, 1.0, 0.0, 0.0, 1.0, 1.0, 256.0, 1.0, 1.60646773510057E9, 2020-11-27 14:47:15.100
152.0, -26212.6953125, 16326.5849609375, -26478.748046875, 51519.046875, 3215.3876953125, 1466.9896240234375, 26911.0078125, 34404.33984375, 0.0, 0.0, 0.0, 193.0, 0.0, 1.0, 1.0, 0.0, 0.0, 1.0, 1.0, 256.0, 1.0, 1.606467735100575E9, 2020-11-27 14:47:15.100
153.0, -26164.01171875, 16369.3662109375, -26437.5078125, 51526.1796875, 3232.822021484375, 1482.2335205078125, 26951.93359375, 34385.8125, 0.0, 0.0, 0.0, 193.0, 0.0, 1.0, 1.0, 0.0, 0.0, 1.0, 1.0, 256.0, 1.0, 1.606467735100579E9, 2020-11-27 14:47:15.100
154.0, -26269.154296875, 16267.419921875, -26531.9453125, 51485.4296875, 3173.634765625, 1434.98193359375, 26887.716796875, 34331.40625, 0.0, 0.0, 0.0, 193.0, 0.0, 1.0, 1.0, 0.0, 0.0, 1.0, 1.0, 256.0, 1.0, 1.606467735100583E9, 2020-11-27 14:47:15.100
155.0, -26386.076171875, 16145.9833984375, -26651.056640625, 51418.421875, 3115.587158203125, 1384.3775634765625, 26805.798828125, 34288.58203125, 0.0, 0.0, 0.0, 193.0, 0.0, 1.0, 1.0, 0.0, 0.0, 1.0, 1.0, 256.0, 1.0, 1.606467735100587E9, 2020-11-27 14:47:15.100
156.0, -26441.107421875, 16093.8369140625, -26703.47265625, 51386.4140625, 3108.255859375, 1373.5146484375, 26760.603515625, 34300.1796875, 0.0, 0.0, 0.0, 193.0, 0.0, 1.0, 1.0, 0.0, 0.0, 1.0, 1.0, 256.0, 1.0, 1.606467735100591E9, 2020-11-27 14:47:15.100
157.0, -26211.2421875, 16331.5478515625, -26473.5625, 51521.52734375, 3233.984375, 1483.619384765625, 26914.8515625, 34407.8046875, 0.0, 0.0, 0.0, 193.0, 0.0, 1.0, 1.0, 0.0, 0.0, 1.0, 1.0, 256.0, 1.0, 1.606467735100596E9, 2020-11-27 14:47:15.100
158.0, -26162.55859375, 16371.2890625, -26432.658203125, 51553.71484375, 3243.28271484375, 1488.9390869140625, 26952.044921875, 34387.7109375, 0.0, 0.0, 0.0, 193.0, 0.0, 1.0, 1.0, 0.0, 0.0, 1.0, 1.0, 256.0, 1.0, 1.6064677351006E9, 2020-11-27 14:47:15.100
159.0, -26265.646484375, 16265.8779296875, -26533.509765625, 51477.18359375, 3174.4169921875, 1432.8138427734375, 26885.99609375, 34328.9921875, 0.0, 0.0, 0.0, 193.0, 0.0, 1.0, 1.0, 0.0, 0.0, 1.0, 1.0, 256.0, 1.0, 1.606467735100604E9, 2020-11-27 14:47:15.100
160.0, -26379.6171875, 16143.5244140625, -26652.53125, 51406.10546875, 3114.782470703125, 1377.9849853515625, 26807.18359375, 34288.26953125, 0.0, 0.0, 0.0, 193.0, 0.0, 1.0, 1.0, 0.0, 0.0, 1.0, 1.0, 256.0, 1.0, 1.606467735100608E9, 2020-11-27 14:47:15.100
161.0, -26433.126953125, 16096.8544921875, -26699.0234375, 51424.6328125, 3104.36669921875, 1369.6478271484375, 26764.357421875, 34307.40234375, 0.0, 0.0, 0.0, 193.0, 0.0, 1.0, 1.0, 0.0, 0.0, 1.0, 1.0, 256.0, 1.0, 1.606467735100613E9, 2020-11-27 14:47:15.100
162.0, -26205.7421875, 16334.85546875, -26475.662109375, 51583.53125, 3230.519775390625, 1466.1402587890625, 26908.125, 34411.2265625, 0.0, 0.0, 0.0, 193.0, 0.0, 1.0, 1.0, 0.0, 0.0, 1.0, 1.0, 256.0, 1.0, 1.606467735100617E9, 2020-11-27 14:47:15.100
163.0, -26153.998046875, 16371.958984375, -26436.48046875, 51595.15625, 3245.316650390625, 1480.55712890625, 26944.84765625, 34390.70703125, 0.0, 0.0, 0.0, 193.0, 0.0, 1.0, 1.0, 0.0, 0.0, 1.0, 1.0, 256.0, 1.0, 1.606467735100661E9, 2020-11-27 14:47:15.100
164.0, -26257.017578125, 16267.3310546875, -26533.330078125, 51514.98046875, 3185.70458984375, 1436.0771484375, 26887.94140625, 34335.5859375, 0.0, 0.0, 0.0, 193.0, 0.0, 1.0, 1.0, 0.0, 0.0, 1.0, 1.0, 256.0, 1.0, 1.606467735100666E9, 2020-11-27 14:47:15.100
165.0, -26369.46875, 16155.9521484375, -26644.0390625, 51456.41796875, 3124.416015625, 1394.7711181640625, 26804.255859375, 34300.65234375, 0.0, 0.0, 0.0, 193.0, 0.0, 1.0, 1.0, 0.0, 0.0, 1.0, 1.0, 256.0, 1.0, 1.606467735160511E9, 2020-11-27 14:47:15.160
166.0, -26427.40625, 16101.1455078125, -26695.291015625, 51396.73828125, 3109.194580078125, 1381.8741455078125, 26760.982421875, 34308.80859375, 0.0, 0.0, 0.0, 193.0, 0.0, 1.0, 1.0, 0.0, 0.0, 1.0, 1.0, 256.0, 1.0, 1.606467735160537E9, 2020-11-27 14:47:15.160
167.0, -26203.91015625, 16332.955078125, -26470.23046875, 51467.4140625, 3230.542236328125, 1492.895263671875, 26918.0703125, 34408.8125, 0.0, 0.0, 0.0, 193.0, 0.0, 1.0, 1.0, 0.0, 0.0, 1.0, 1.0, 256.0, 1.0, 1.606467735160541E9, 2020-11-27 14:47:15.160
168.0, -26150.17578125, 16376.7421875, -26430.244140625, 51526.828125, 3242.746337890625, 1500.1148681640625, 26958.951171875, 34391.80078125, 0.0, 0.0, 0.0, 193.0, 0.0, 1.0, 1.0, 0.0, 0.0, 1.0, 1.0, 256.0, 1.0, 1.606467735160546E9, 2020-11-27 14:47:15.160
169.0, -26251.810546875, 16270.1474609375, -26532.123046875, 51526.6484375, 3190.577392578125, 1444.6826171875, 26887.984375, 34336.859375, 0.0, 0.0, 0.0, 193.0, 0.0, 1.0, 1.0, 0.0, 0.0, 1.0, 1.0, 256.0, 1.0, 1.60646773516055E9, 2020-11-27 14:47:15.160
170.0, -26365.982421875, 16150.9228515625, -26646.720703125, 51519.65234375, 3125.53369140625, 1378.364990234375, 26802.78125, 34296.203125, 0.0, 0.0, 0.0, 193.0, 0.0, 1.0, 1.0, 0.0, 0.0, 1.0, 1.0, 256.0, 1.0, 1.606467735160554E9, 2020-11-27 14:47:15.160
171.0, -26427.607421875, 16096.228515625, -26701.548828125, 51435.36328125, 3101.4384765625, 1360.41650390625, 26758.345703125, 34298.70703125, 0.0, 0.0, 0.0, 193.0, 0.0, 1.0, 1.0, 0.0, 0.0, 1.0, 1.0, 256.0, 1.0, 1.606467735160559E9, 2020-11-27 14:47:15.160
172.0, -26202.92578125, 16335.6376953125, -26471.19140625, 51500.5625, 3230.7880859375, 1482.255859375, 26912.326171875, 34407.73828125, 0.0, 0.0, 0.0, 193.0, 0.0, 1.0, 1.0, 0.0, 0.0, 1.0, 1.0, 256.0, 1.0, 1.606467735160563E9, 2020-11-27 14:47:15.160
173.0, -26150.736328125, 16377.4580078125, -26428.857421875, 51527.83203125, 3240.578125, 1499.2655029296875, 26951.93359375, 34394.05859375, 0.0, 0.0, 0.0, 193.0, 0.0, 1.0, 1.0, 0.0, 0.0, 1.0, 1.0, 256.0, 1.0, 1.606467735160567E9, 2020-11-27 14:47:15.160
174.0, -26250.580078125, 16268.91796875, -26530.201171875, 51454.5625, 3185.682373046875, 1451.2540283203125, 26889.794921875, 34339.49609375, 0.0, 0.0, 0.0, 193.0, 0.0, 1.0, 1.0, 0.0, 0.0, 1.0, 1.0, 256.0, 1.0, 1.606467735160571E9, 2020-11-27 14:47:15.160
175.0, -26366.83203125, 16149.89453125, -26646.609375, 51452.796875, 3121.175048828125, 1383.260009765625, 26810.22265625, 34304.18359375, 0.0, 0.0, 0.0, 193.0, 0.0, 1.0, 1.0, 0.0, 0.0, 1.0, 1.0, 256.0, 1.0, 1.606467735160575E9, 2020-11-27 14:47:15.160
176.0, -26424.029296875, 16096.294921875, -26701.951171875, 51478.546875, 3105.841796875, 1361.6458740234375, 26770.080078125, 34309.3671875, 0.0, 0.0, 0.0, 193.0, 0.0, 1.0, 1.0, 0.0, 0.0, 1.0, 1.0, 256.0, 1.0, 1.606467735160581E9, 2020-11-27 14:47:15.160
177.0, -26194.365234375, 16338.587890625, -26471.55078125, 51574.8828125, 3238.946533203125, 1484.401611328125, 26919.30078125, 34414.77734375, 0.0, 0.0, 0.0, 193.0, 0.0, 1.0, 1.0, 0.0, 0.0, 1.0, 1.0, 256.0, 1.0, 1.606467735160585E9, 2020-11-27 14:47:15.160
178.0, -26151.294921875, 16379.4697265625, -26430.064453125, 51567.05859375, 3252.87158203125, 1493.5211181640625, 26949.005859375, 34399.51171875, 0.0, 0.0, 0.0, 193.0, 0.0, 1.0, 1.0, 0.0, 0.0, 1.0, 1.0, 256.0, 1.0, 1.60646773516059E9, 2020-11-27 14:47:15.160
179.0, -26254.201171875, 16271.130859375, -26532.234375, 51487.1953125, 3192.208984375, 1444.5484619140625, 26881.458984375, 34340.79296875, 0.0, 0.0, 0.0, 193.0, 0.0, 1.0, 1.0, 0.0, 0.0, 1.0, 1.0, 256.0, 1.0, 1.606467735160593E9, 2020-11-27 14:47:15.160
180.0, -26371.525390625, 16152.3759765625, -26645.044921875, 51459.8828125, 3128.6630859375, 1387.8421630859375, 26805.373046875, 34302.52734375, 0.0, 0.0, 0.0, 193.0, 0.0, 1.0, 1.0, 0.0, 0.0, 1.0, 1.0, 256.0, 1.0, 1.606467735219675E9, 2020-11-27 14:47:15.219
181.0, -26435.51953125, 16098.44140625, -26696.07421875, 51428.43359375, 3098.57763671875, 1371.972412109375, 26765.1171875, 34313.14453125, 0.0, 0.0, 0.0, 193.0, 0.0, 1.0, 1.0, 0.0, 0.0, 1.0, 1.0, 256.0, 1.0, 1.606467735219693E9, 2020-11-27 14:47:15.219
182.0, -26216.181640625, 16331.0107421875, -26474.76953125, 51455.32421875, 3215.767822265625, 1479.57373046875, 26911.7890625, 34411.78515625, 0.0, 0.0, 0.0, 193.0, 0.0, 1.0, 1.0, 0.0, 0.0, 1.0, 1.0, 256.0, 1.0, 1.606467735219697E9, 2020-11-27 14:47:15.219
183.0, -26163.7890625, 16371.5126953125, -26437.330078125, 51535.72265625, 3232.531494140625, 1480.7806396484375, 26951.173828125, 34392.16015625, 0.0, 0.0, 0.0, 193.0, 0.0, 1.0, 1.0, 0.0, 0.0, 1.0, 1.0, 256.0, 1.0, 1.606467735219701E9, 2020-11-27 14:47:15.219
184.0, -26270.09375, 16263.28515625, -26539.90234375, 51523.0703125, 3169.052490234375, 1424.4990234375, 26888.34375, 34335.36328125, 0.0, 0.0, 0.0, 193.0, 0.0, 1.0, 1.0, 0.0, 0.0, 1.0, 1.0, 256.0, 1.0, 1.606467735219705E9, 2020-11-27 14:47:15.219
185.0, -26388.37890625, 16136.751953125, -26660.244140625, 51441.95703125, 3105.975830078125, 1360.3494873046875, 26794.3984375, 34291.1953125, 0.0, 0.0, 0.0, 193.0, 0.0, 1.0, 1.0, 0.0, 0.0, 1.0, 1.0, 256.0, 1.0, 1.606467735219709E9, 2020-11-27 14:47:15.219
186.0, -26446.203125, 16083.6669921875, -26710.982421875, 51403.3984375, 3094.35302734375, 1352.5487060546875, 26747.302734375, 34298.01171875, 0.0, 0.0, 0.0, 193.0, 0.0, 1.0, 1.0, 0.0, 0.0, 1.0, 1.0, 256.0, 1.0, 1.606467735219713E9, 2020-11-27 14:47:15.219
187.0, -26222.306640625, 16331.8603515625, -26479.10546875, 51517.57421875, 3215.767822265625, 1470.007080078125, 26893.439453125, 34404.140625, 0.0, 0.0, 0.0, 193.0, 0.0, 1.0, 1.0, 0.0, 0.0, 1.0, 1.0, 256.0, 1.0, 1.606467735219747E9, 2020-11-27 14:47:15.219
188.0, -26180.060546875, 16370.9755859375, -26440.681640625, 51548.77734375, 3214.7841796875, 1473.1363525390625, 26936.845703125, 34383.08203125, 0.0, 0.0, 0.0, 193.0, 0.0, 1.0, 1.0, 0.0, 0.0, 1.0, 1.0, 256.0, 1.0, 1.606467735219751E9, 2020-11-27 14:47:15.219
189.0, -26281.203125, 16261.2509765625, -26542.046875, 51487.75390625, 3154.769775390625, 1421.839111328125, 26872.787109375, 34334.08984375, 0.0, 0.0, 0.0, 193.0, 0.0, 1.0, 1.0, 0.0, 0.0, 1.0, 1.0, 256.0, 1.0, 1.606467735219755E9, 2020-11-27 14:47:15.219
190.0, -26392.4921875, 16141.3564453125, -26657.44921875, 51432.01171875, 3102.802001953125, 1368.463134765625, 26789.97265625, 34293.23046875, 0.0, 0.0, 0.0, 193.0, 0.0, 1.0, 1.0, 0.0, 0.0, 1.0, 1.0, 256.0, 1.0, 1.606467735219759E9, 2020-11-27 14:47:15.219
191.0, -26446.314453125, 16084.2255859375, -26721.375, 51427.0703125, 3081.523193359375, 1334.6673583984375, 26732.373046875, 34294.01171875, 0.0, 0.0, 0.0, 193.0, 0.0, 1.0, 1.0, 0.0, 0.0, 1.0, 1.0, 256.0, 1.0, 1.606467735219763E9, 2020-11-27 14:47:15.219
192.0, -26220.13671875, 16326.00390625, -26487.642578125, 51537.890625, 3201.172119140625, 1455.27734375, 26895.40625, 34403.04296875, 0.0, 0.0, 0.0, 193.0, 0.0, 1.0, 1.0, 0.0, 0.0, 1.0, 1.0, 256.0, 1.0, 1.606467735219768E9, 2020-11-27 14:47:15.219
193.0, -26168.125, 16380.654296875, -26425.728515625, 51536.83984375, 3220.752197265625, 1479.0595703125, 26955.576171875, 34393.58984375, 0.0, 0.0, 0.0, 193.0, 0.0, 1.0, 1.0, 0.0, 0.0, 1.0, 1.0, 256.0, 1.0, 1.606467735219771E9, 2020-11-27 14:47:15.219
194.0, -26265.310546875, 16274.55078125, -26526.78125, 51464.95703125, 3175.4228515625, 1430.6904296875, 26881.01171875, 34336.50390625, 0.0, 0.0, 0.0, 193.0, 0.0, 1.0, 1.0, 0.0, 0.0, 1.0, 1.0, 256.0, 1.0, 1.606467735219776E9, 2020-11-27 14:47:15.219
195.0, -26388.111328125, 16147.48046875, -26652.732421875, 51428.32421875, 3102.779541015625, 1381.4271240234375, 26797.1484375, 34292.9609375, 0.0, 0.0, 0.0, 193.0, 0.0, 1.0, 1.0, 0.0, 0.0, 1.0, 1.0, 256.0, 1.0, 1.606467735279439E9, 2020-11-27 14:47:15.279
196.0, -26449.734375, 16084.6279296875, -26720.66015625, 51409.16796875, 3080.53955078125, 1355.02978515625, 26746.833984375, 34298.1484375, 0.0, 0.0, 0.0, 193.0, 0.0, 1.0, 1.0, 0.0, 0.0, 1.0, 1.0, 256.0, 1.0, 1.606467735279457E9, 2020-11-27 14:47:15.279
197.0, -26226.150390625, 16321.712890625, -26489.23046875, 51505.546875, 3214.3818359375, 1465.4027099609375, 26901.12890625, 34405.703125, 0.0, 0.0, 0.0, 193.0, 0.0, 1.0, 1.0, 0.0, 0.0, 1.0, 1.0, 256.0, 1.0, 1.606467735279461E9, 2020-11-27 14:47:15.279
198.0, -26173.53515625, 16371.490234375, -26433.841796875, 51544.7734375, 3219.947509765625, 1484.401611328125, 26955.33203125, 34395.95703125, 0.0, 0.0, 0.0, 193.0, 0.0, 1.0, 1.0, 0.0, 0.0, 1.0, 1.0, 256.0, 1.0, 1.606467735279465E9, 2020-11-27 14:47:15.279
199.0, -26271.14453125, 16266.548828125, -26541.533203125, 51489.43359375, 3160.178955078125, 1425.6165771484375, 26878.10546875, 34333.57421875, 0.0, 0.0, 0.0, 193.0, 0.0, 1.0, 1.0, 0.0, 0.0, 1.0, 1.0, 256.0, 1.0, 1.606467735279469E9, 2020-11-27 14:47:15.279
200.0, -26383.595703125, 16152.7783203125, -26654.41015625, 51446.65234375, 3102.95849609375, 1371.1453857421875, 26790.666015625, 34290.546875, 0.0, 0.0, 0.0, 193.0, 0.0, 1.0, 1.0, 0.0, 0.0, 1.0, 1.0, 256.0, 1.0, 1.606467735279473E9, 2020-11-27 14:47:15.279
201.0, -26443.275390625, 16098.240234375, -26702.17578125, 51425.19140625, 3084.36181640625, 1365.0433349609375, 26748.01953125, 34298.83984375, 0.0, 0.0, 0.0, 193.0, 0.0, 1.0, 1.0, 0.0, 0.0, 1.0, 1.0, 256.0, 1.0, 1.606467735279477E9, 2020-11-27 14:47:15.279
202.0, -26221.568359375, 16333.1123046875, -26475.685546875, 51480.8046875, 3200.233154296875, 1488.8719482421875, 26902.15625, 34408.20703125, 0.0, 0.0, 0.0, 193.0, 0.0, 1.0, 1.0, 0.0, 0.0, 1.0, 1.0, 256.0, 1.0, 1.60646773527948E9, 2020-11-27 14:47:15.279
203.0, -26166.337890625, 16375.9599609375, -26440.771484375, 51530.40234375, 3215.27587890625, 1481.76416015625, 26944.22265625, 34393.23046875, 0.0, 0.0, 0.0, 193.0, 0.0, 1.0, 1.0, 0.0, 0.0, 1.0, 1.0, 256.0, 1.0, 1.606467735279484E9, 2020-11-27 14:47:15.279
204.0, -26262.314453125, 16273.9912109375, -26539.857421875, 51513.39453125, 3152.065185546875, 1414.552490234375, 26879.1796875, 34334.24609375, 0.0, 0.0, 0.0, 193.0, 0.0, 1.0, 1.0, 0.0, 0.0, 1.0, 1.0, 256.0, 1.0, 1.606467735279488E9, 2020-11-27 14:47:15.279
205.0, -26365.8046875, 16161.96484375, -26646.005859375, 51451.5, 3098.018798828125, 1374.7886962890625, 26807.294921875, 34293.96875, 0.0, 0.0, 0.0, 193.0, 0.0, 1.0, 1.0, 0.0, 0.0, 1.0, 1.0, 256.0, 1.0, 1.606467735279491E9, 2020-11-27 14:47:15.279
206.0, -26426.779296875, 16105.9736328125, -26701.03515625, 51418.15234375, 3092.698974609375, 1364.2833251953125, 26757.787109375, 34297.296875, 0.0, 0.0, 0.0, 193.0, 0.0, 1.0, 1.0, 0.0, 0.0, 1.0, 1.0, 256.0, 1.0, 1.606467735279495E9, 2020-11-27 14:47:15.279
207.0, -26209.36328125, 16335.302734375, -26478.791015625, 51530.4921875, 3221.020263671875, 1479.506591796875, 26900.681640625, 34394.66015625, 0.0, 0.0, 0.0, 193.0, 0.0, 1.0, 1.0, 0.0, 0.0, 1.0, 1.0, 256.0, 1.0, 1.6064677352795E9, 2020-11-27 14:47:15.279
208.0, -26145.75, 16387.314453125, -26422.95703125, 51569.09375, 3246.166015625, 1509.2791748046875, 26960.181640625, 34385.296875, 0.0, 0.0, 0.0, 193.0, 0.0, 1.0, 1.0, 0.0, 0.0, 1.0, 1.0, 256.0, 1.0, 1.606467735279504E9, 2020-11-27 14:47:15.279
209.0, -26241.974609375, 16285.123046875, -26521.751953125, 51522.2890625, 3195.4052734375, 1463.8603515625, 26903.966796875, 34333.62109375, 0.0, 0.0, 0.0, 193.0, 0.0, 1.0, 1.0, 0.0, 0.0, 1.0, 1.0, 256.0, 1.0, 1.606467735279508E9, 2020-11-27 14:47:15.279
210.0, -26346.626953125, 16176.42578125, -26627.095703125, 51487.12890625, 3155.373291015625, 1421.8614501953125, 26834.341796875, 34302.39453125, 0.0, 0.0, 0.0, 193.0, 0.0, 1.0, 1.0, 0.0, 0.0, 1.0, 1.0, 256.0, 1.0, 1.606467735339459E9, 2020-11-27 14:47:15.339
211.0, -26396.447265625, 16128.705078125, -26671.666015625, 51449.265625, 3149.2490234375, 1424.834228515625, 26804.390625, 34323.515625, 0.0, 0.0, 0.0, 193.0, 0.0, 1.0, 1.0, 0.0, 0.0, 1.0, 1.0, 256.0, 1.0, 1.606467735339477E9, 2020-11-27 14:47:15.339
212.0, -26174.830078125, 16355.28515625, -26452.86328125, 51519.98828125, 3272.317626953125, 1532.390869140625, 26956.068359375, 34439.453125, 0.0, 0.0, 0.0, 193.0, 0.0, 1.0, 1.0, 0.0, 0.0, 1.0, 1.0, 256.0, 1.0, 1.606467735339482E9, 2020-11-27 14:47:15.339
