%OpenBCI Raw EEG Data
%Number of channels = 8
%Sample Rate = 250 Hz
%Board = OpenBCI_GUI$BoardCytonSerial
Sample Index, EXG Channel 0, EXG Channel 1, EXG Channel 2, EXG Channel 3, EXG Channel 4, EXG Channel 5, EXG Channel 6, EXG Channel 7, Accel Channel 0, Accel Channel 1, Accel Channel 2, Other, Other, Other, Other, Other, Other, Other, Analog Channel 0, Analog Channel 1, Analog Channel 2, Timestamp, Timestamp (Formatted)
0.0, 0.0, 0.0, 0.0, 0.0, 0.0, 0.0, 0.0, 0.0, 0.0, 0.0, 0.0, 193.0, 0.0, 1.0, 1.0, 0.0, 0.0, 1.0, 1.0, 256.0, 1.0, 1.606468020434776E9, 2020-11-27 14:52:00.434
1.0, -28974.810546875, 15843.6982421875, -29096.740234375, 47936.421875, 3397.934326171875, 143.7440643310547, 25723.146484375, 33953.640625, 0.0, 0.0, 0.0, 193.0, 0.0, 1.0, 1.0, 0.0, 0.0, 1.0, 1.0, 256.0, 1.0, 1.606468020492803E9, 2020-11-27 14:52:00.492
2.0, -29068.8671875, 15739.29296875, -29196.919921875, 47843.21484375, 3343.3291015625, 98.30297088623047, 25645.67578125, 33901.26953125, 0.0, 0.0, 0.0, 193.0, 0.0, 1.0, 1.0, 0.0, 0.0, 1.0, 1.0, 256.0, 1.0, 1.606468020492831E9, 2020-11-27 14:52:00.492
3.0, -29189.41015625, 15624.337890625, -29302.822265625, 47777.4765625, 3285.013427734375, 47.363346099853516, 25565.74609375, 33860.8359375, 0.0, 0.0, 0.0, 193.0, 0.0, 1.0, 1.0, 0.0, 0.0, 1.0, 1.0, 256.0, 1.0, 1.606468020492835E9, 2020-11-27 14:52:00.492
4.0, -29189.833984375, 15636.7880859375, -29293.771484375, 47798.265625, 3297.3515625, 64.12715148925781, 25574.328125, 33902.140625, 0.0, 0.0, 0.0, 193.0, 0.0, 1.0, 1.0, 0.0, 0.0, 1.0, 1.0, 256.0, 1.0, 1.60646802049284E9, 2020-11-27 14:52:00.492
5.0, -28954.5390625, 15859.634765625, -29088.693359375, 47927.3671875, 3431.462158203125, 174.56712341308594, 25712.529296875, 33997.5390625, 0.0, 0.0, 0.0, 193.0, 0.0, 1.0, 1.0, 0.0, 0.0, 1.0, 1.0, 256.0, 1.0, 1.606468020492844E9, 2020-11-27 14:52:00.492
6.0, -28964.216796875, 15828.9013671875, -29114.3984375, 47833.9375, 3410.00439453125, 165.46995544433594, 25712.529296875, 33953.125, 0.0, 0.0, 0.0, 193.0, 0.0, 1.0, 1.0, 0.0, 0.0, 1.0, 1.0, 256.0, 1.0, 1.606468020492926E9, 2020-11-27 14:52:00.492
7.0, -29066.36328125, 15735.806640625, -29199.603515625, 47879.51171875, 3348.760498046875, 96.26895904541016, 25650.2578125, 33903.4140625, 0.0, 0.0, 0.0, 193.0, 0.0, 1.0, 1.0, 0.0, 0.0, 1.0, 1.0, 256.0, 1.0, 1.606468020492932E9, 2020-11-27 14:52:00.492
8.0, -29200.18359375, 15629.3671875, -29292.876953125, 47872.7421875, 3274.150390625, 39.65199279785156, 25574.841796875, 33863.0703125, 0.0, 0.0, 0.0, 193.0, 0.0, 1.0, 1.0, 0.0, 0.0, 1.0, 1.0, 256.0, 1.0, 1.606468020492937E9, 2020-11-27 14:52:00.492
9.0, -29187.3984375, 15632.2060546875, -29298.486328125, 47812.83984375, 3302.44775390625, 57.51103591918945, 25565.208984375, 33895.234375, 0.0, 0.0, 0.0, 193.0, 0.0, 1.0, 1.0, 0.0, 0.0, 1.0, 1.0, 256.0, 1.0, 1.606468020492941E9, 2020-11-27 14:52:00.492
10.0, -28964.328125, 15857.0419921875, -29086.2578125, 47881.3671875, 3427.99755859375, 171.57199096679688, 25719.8828125, 33990.87890625, 0.0, 0.0, 0.0, 193.0, 0.0, 1.0, 1.0, 0.0, 0.0, 1.0, 1.0, 256.0, 1.0, 1.606468020492945E9, 2020-11-27 14:52:00.492
11.0, -28972.7109375, 15846.4697265625, -29094.548828125, 47964.09375, 3401.42138671875, 143.18527221679688, 25723.884765625, 33950.84765625, 0.0, 0.0, 0.0, 193.0, 0.0, 1.0, 1.0, 0.0, 0.0, 1.0, 1.0, 256.0, 1.0, 1.606468020492949E9, 2020-11-27 14:52:00.492
12.0, -29057.35546875, 15751.3857421875, -29181.318359375, 47904.94921875, 3367.290283203125, 118.59835052490234, 25666.484375, 33903.48046875, 0.0, 0.0, 0.0, 193.0, 0.0, 1.0, 1.0, 0.0, 0.0, 1.0, 1.0, 256.0, 1.0, 1.606468020492956E9, 2020-11-27 14:52:00.492
13.0, -29166.119140625, 15627.310546875, -29301.705078125, 47715.02734375, 3315.9482421875, 83.32730102539062, 25581.681640625, 33855.89453125, 0.0, 0.0, 0.0, 193.0, 0.0, 1.0, 1.0, 0.0, 0.0, 1.0, 1.0, 256.0, 1.0, 1.60646802049296E9, 2020-11-27 14:52:00.492
14.0, -29144.9296875, 15645.8857421875, -29290.41796875, 47786.5078125, 3362.41748046875, 94.48081970214844, 25586.623046875, 33898.56640625, 0.0, 0.0, 0.0, 193.0, 0.0, 1.0, 1.0, 0.0, 0.0, 1.0, 1.0, 256.0, 1.0, 1.606468020492964E9, 2020-11-27 14:52:00.492
15.0, -28916.919921875, 15894.951171875, -29049.0859375, 48079.44921875, 3506.094482421875, 216.9013214111328, 25761.525390625, 34009.5625, 0.0, 0.0, 0.0, 193.0, 0.0, 1.0, 1.0, 0.0, 0.0, 1.0, 1.0, 256.0, 1.0, 1.606468020492969E9, 2020-11-27 14:52:00.492
16.0, -28933.482421875, 15881.96484375, -29053.779296875, 48099.453125, 3482.200439453125, 186.8158721923828, 25773.99609375, 33980.59765625, 0.0, 0.0, 0.0, 193.0, 0.0, 1.0, 1.0, 0.0, 0.0, 1.0, 1.0, 256.0, 1.0, 1.606468020552807E9, 2020-11-27 14:52:00.552
17.0, -29032.880859375, 15782.1865234375, -29148.328125, 48017.71484375, 3422.76708984375, 138.1561279296875, 25712.306640625, 33947.8046875, 0.0, 0.0, 0.0, 193.0, 0.0, 1.0, 1.0, 0.0, 0.0, 1.0, 1.0, 256.0, 1.0, 1.606468020552825E9, 2020-11-27 14:52:00.552
18.0, -29159.4375, 15651.0927734375, -29276.359375, 47901.1484375, 3352.7392578125, 80.82390594482422, 25618.205078125, 33903.8828125, 0.0, 0.0, 0.0, 193.0, 0.0, 1.0, 1.0, 0.0, 0.0, 1.0, 1.0, 256.0, 1.0, 1.606468020552829E9, 2020-11-27 14:52:00.552
19.0, -29173.8984375, 15648.3212890625, -29278.392578125, 47833.7578125, 3339.998779296875, 86.74711608886719, 25597.57421875, 33928.0703125, 0.0, 0.0, 0.0, 193.0, 0.0, 1.0, 1.0, 0.0, 0.0, 1.0, 1.0, 256.0, 1.0, 1.606468020552833E9, 2020-11-27 14:52:00.552
20.0, -28960.3046875, 15864.7314453125, -29072.7109375, 47838.41015625, 3438.279296875, 197.96939086914062, 25739.84375, 34019.8671875, 0.0, 0.0, 0.0, 193.0, 0.0, 1.0, 1.0, 0.0, 0.0, 1.0, 1.0, 256.0, 1.0, 1.606468020552837E9, 2020-11-27 14:52:00.552
21.0, -28977.828125, 15835.96484375, -29098.39453125, 47721.15234375, 3416.28515625, 190.4145050048828, 25729.875, 33973.6875, 0.0, 0.0, 0.0, 193.0, 0.0, 1.0, 1.0, 0.0, 0.0, 1.0, 1.0, 256.0, 1.0, 1.606468020552841E9, 2020-11-27 14:52:00.552
22.0, -29073.91796875, 15741.841796875, -29194.953125, 47877.0546875, 3349.654541015625, 102.81802368164062, 25659.154296875, 33923.7109375, 0.0, 0.0, 0.0, 193.0, 0.0, 1.0, 1.0, 0.0, 0.0, 1.0, 1.0, 256.0, 1.0, 1.606468020552845E9, 2020-11-27 14:52:00.552
23.0, -29186.013671875, 15628.7412109375, -29304.431640625, 47941.13671875, 3284.387451171875, 22.843481063842773, 25574.931640625, 33872.90625, 0.0, 0.0, 0.0, 193.0, 0.0, 1.0, 1.0, 0.0, 0.0, 1.0, 1.0, 256.0, 1.0, 1.606468020552883E9, 2020-11-27 14:52:00.552
24.0, -29187.15234375, 15635.916015625, -29295.9609375, 47870.26171875, 3304.75, 44.72583770751953, 25573.3671875, 33896.77734375, 0.0, 0.0, 0.0, 193.0, 0.0, 1.0, 1.0, 0.0, 0.0, 1.0, 1.0, 256.0, 1.0, 1.606468020552927E9, 2020-11-27 14:52:00.552
25.0, -28970.228515625, 15865.2900390625, -29074.544921875, 47945.80859375, 3427.59521484375, 164.33001708984375, 25730.5, 33995.16796875, 0.0, 0.0, 0.0, 193.0, 0.0, 1.0, 1.0, 0.0, 0.0, 1.0, 1.0, 256.0, 1.0, 1.606468020552932E9, 2020-11-27 14:52:00.552
26.0, -28986.03125, 15838.8251953125, -29095.95703125, 47898.55859375, 3398.8955078125, 157.7809600830078, 25724.599609375, 33956.6796875, 0.0, 0.0, 0.0, 193.0, 0.0, 1.0, 1.0, 0.0, 0.0, 1.0, 1.0, 256.0, 1.0, 1.606468020552936E9, 2020-11-27 14:52:00.552
27.0, -29077.47265625, 15733.6162109375, -29201.30078125, 47837.40234375, 3340.266845703125, 96.09014892578125, 25645.630859375, 33902.1640625, 0.0, 0.0, 0.0, 193.0, 0.0, 1.0, 1.0, 0.0, 0.0, 1.0, 1.0, 256.0, 1.0, 1.606468020552941E9, 2020-11-27 14:52:00.552
28.0, -29188.671875, 15614.9501953125, -29317.462890625, 47798.5546875, 3282.107666015625, 31.33714485168457, 25559.732421875, 33858.17578125, 0.0, 0.0, 0.0, 193.0, 0.0, 1.0, 1.0, 0.0, 0.0, 1.0, 1.0, 256.0, 1.0, 1.606468020552944E9, 2020-11-27 14:52:00.552
29.0, -29182.615234375, 15624.5615234375, -29315.5859375, 47813.77734375, 3300.324462890625, 34.39933395385742, 25553.853515625, 33889.421875, 0.0, 0.0, 0.0, 193.0, 0.0, 1.0, 1.0, 0.0, 0.0, 1.0, 1.0, 256.0, 1.0, 1.606468020552948E9, 2020-11-27 14:52:00.552
30.0, -28961.892578125, 15852.1025390625, -29091.7109375, 47946.58984375, 3425.516357421875, 152.88592529296875, 25713.021484375, 33993.87109375, 0.0, 0.0, 0.0, 193.0, 0.0, 1.0, 1.0, 0.0, 0.0, 1.0, 1.0, 256.0, 1.0, 1.606468020552953E9, 2020-11-27 14:52:00.552
31.0, -28979.080078125, 15840.099609375, -29092.001953125, 47888.921875, 3396.056884765625, 158.1609344482422, 25726.611328125, 33959.31640625, 0.0, 0.0, 0.0, 193.0, 0.0, 1.0, 1.0, 0.0, 0.0, 1.0, 1.0, 256.0, 1.0, 1.60646802061186E9, 2020-11-27 14:52:00.611
32.0, -29078.701171875, 15743.4501953125, -29190.1484375, 47858.546875, 3343.61962890625, 103.51092529296875, 25661.701171875, 33903.16796875, 0.0, 0.0, 0.0, 193.0, 0.0, 1.0, 1.0, 0.0, 0.0, 1.0, 1.0, 256.0, 1.0, 1.606468020611883E9, 2020-11-27 14:52:00.611
33.0, -29188.44921875, 15625.6796875, -29306.623046875, 47904.94921875, 3279.112548828125, 28.45376968383789, 25561.85546875, 33859.29296875, 0.0, 0.0, 0.0, 193.0, 0.0, 1.0, 1.0, 0.0, 0.0, 1.0, 1.0, 256.0, 1.0, 1.606468020611888E9, 2020-11-27 14:52:00.611
34.0, -29188.068359375, 15632.697265625, -29294.330078125, 47813.375, 3292.05419921875, 54.784122467041016, 25565.9921875, 33894.921875, 0.0, 0.0, 0.0, 193.0, 0.0, 1.0, 1.0, 0.0, 0.0, 1.0, 1.0, 256.0, 1.0, 1.606468020611892E9, 2020-11-27 14:52:00.611
35.0, -28970.564453125, 15858.4501953125, -29073.875, 47894.82421875, 3421.80615234375, 166.3416748046875, 25732.623046875, 33999.88671875, 0.0, 0.0, 0.0, 193.0, 0.0, 1.0, 1.0, 0.0, 0.0, 1.0, 1.0, 256.0, 1.0, 1.606468020611897E9, 2020-11-27 14:52:00.611
36.0, -28980.533203125, 15838.7587890625, -29104.02734375, 48012.8203125, 3397.375732421875, 125.43798828125, 25718.05078125, 33954.3984375, 0.0, 0.0, 0.0, 193.0, 0.0, 1.0, 1.0, 0.0, 0.0, 1.0, 1.0, 256.0, 1.0, 1.606468020611901E9, 2020-11-27 14:52:00.611
37.0, -29068.599609375, 15738.17578125, -29205.951171875, 47974.91015625, 3345.184326171875, 66.00469970703125, 25636.82421875, 33899.83984375, 0.0, 0.0, 0.0, 193.0, 0.0, 1.0, 1.0, 0.0, 0.0, 1.0, 1.0, 256.0, 1.0, 1.606468020611905E9, 2020-11-27 14:52:00.611
38.0, -29167.505859375, 15630.5966796875, -29302.041015625, 47842.921875, 3301.46435546875, 43.87647247314453, 25571.4453125, 33869.75390625, 0.0, 0.0, 0.0, 193.0, 0.0, 1.0, 1.0, 0.0, 0.0, 1.0, 1.0, 256.0, 1.0, 1.606468020611909E9, 2020-11-27 14:52:00.611
39.0, -29151.009765625, 15644.1865234375, -29295.982421875, 47840.8671875, 3322.072509765625, 58.583919525146484, 25567.623046875, 33899.94921875, 0.0, 0.0, 0.0, 193.0, 0.0, 1.0, 1.0, 0.0, 0.0, 1.0, 1.0, 256.0, 1.0, 1.606468020611913E9, 2020-11-27 14:52:00.611
40.0, -28956.68359375, 15859.2099609375, -29089.4765625, 47943.6171875, 3431.9091796875, 151.12013244628906, 25706.5390625, 33990.41015625, 0.0, 0.0, 0.0, 193.0, 0.0, 1.0, 1.0, 0.0, 0.0, 1.0, 1.0, 256.0, 1.0, 1.606468020611917E9, 2020-11-27 14:52:00.611
41.0, -28989.83203125, 15835.0029296875, -29106.08203125, 47966.57421875, 3397.330810546875, 124.92389678955078, 25707.724609375, 33954.01953125, 0.0, 0.0, 0.0, 193.0, 0.0, 1.0, 1.0, 0.0, 0.0, 1.0, 1.0, 256.0, 1.0, 1.606468020611922E9, 2020-11-27 14:52:00.611
42.0, -29103.35546875, 15732.654296875, -29195.9140625, 47872.5625, 3330.990966796875, 83.57316589355469, 25648.759765625, 33902.87890625, 0.0, 0.0, 0.0, 193.0, 0.0, 1.0, 1.0, 0.0, 0.0, 1.0, 1.0, 256.0, 1.0, 1.606468020611928E9, 2020-11-27 14:52:00.611
43.0, -29221.685546875, 15620.896484375, -29299.537109375, 47789.19140625, 3267.958984375, 39.00379180908203, 25574.08203125, 33866.19921875, 0.0, 0.0, 0.0, 193.0, 0.0, 1.0, 1.0, 0.0, 0.0, 1.0, 1.0, 256.0, 1.0, 1.606468020611932E9, 2020-11-27 14:52:00.611
44.0, -29203.201171875, 15633.79296875, -29300.4765625, 47844.19921875, 3293.775390625, 48.1009521484375, 25567.35546875, 33900.734375, 0.0, 0.0, 0.0, 193.0, 0.0, 1.0, 1.0, 0.0, 0.0, 1.0, 1.0, 256.0, 1.0, 1.606468020611937E9, 2020-11-27 14:52:00.611
45.0, -28969.177734375, 15865.982421875, -29081.072265625, 47913.7109375, 3430.21044921875, 183.3737030029297, 25722.7890625, 34002.45703125, 0.0, 0.0, 0.0, 193.0, 0.0, 1.0, 1.0, 0.0, 0.0, 1.0, 1.0, 256.0, 1.0, 1.606468020611941E9, 2020-11-27 14:52:00.611
46.0, -28996.9609375, 15844.6142578125, -29094.4375, 47929.15625, 3401.443603515625, 142.67117309570312, 25722.4765625, 33958.3125, 0.0, 0.0, 0.0, 193.0, 0.0, 1.0, 1.0, 0.0, 0.0, 1.0, 1.0, 256.0, 1.0, 1.606468020676987E9, 2020-11-27 14:52:00.676
47.0, -29100.986328125, 15746.5576171875, -29188.873046875, 47916.21484375, 3335.282470703125, 79.39339447021484, 25653.341796875, 33907.8203125, 0.0, 0.0, 0.0, 193.0, 0.0, 1.0, 1.0, 0.0, 0.0, 1.0, 1.0, 256.0, 1.0, 1.606468020677035E9, 2020-11-27 14:52:00.677
48.0, -29212.119140625, 15633.033203125, -29296.498046875, 47801.59375, 3281.906494140625, 41.328372955322266, 25571.37890625, 33864.74609375, 0.0, 0.0, 0.0, 193.0, 0.0, 1.0, 1.0, 0.0, 0.0, 1.0, 1.0, 256.0, 1.0, 1.60646802067704E9, 2020-11-27 14:52:00.677
49.0, -29213.3046875, 15640.833984375, -29288.5625, 47814.44921875, 3289.46142578125, 49.375, 25568.205078125, 33894.140625, 0.0, 0.0, 0.0, 193.0, 0.0, 1.0, 1.0, 0.0, 0.0, 1.0, 1.0, 256.0, 1.0, 1.606468020677044E9, 2020-11-27 14:52:00.677
50.0, -28990.7265625, 15865.2451171875, -29079.9765625, 47975.359375, 3400.236572265625, 153.24356079101562, 25709.556640625, 33991.83984375, 0.0, 0.0, 0.0, 193.0, 0.0, 1.0, 1.0, 0.0, 0.0, 1.0, 1.0, 256.0, 1.0, 1.606468020677048E9, 2020-11-27 14:52:00.677
51.0, -28998.369140625, 15837.998046875, -29105.12109375, 47955.3515625, 3384.456298828125, 135.45156860351562, 25703.8125, 33946.17578125, 0.0, 0.0, 0.0, 193.0, 0.0, 1.0, 1.0, 0.0, 0.0, 1.0, 1.0, 256.0, 1.0, 1.606468020677052E9, 2020-11-27 14:52:00.677
52.0, -29085.294921875, 15736.9013671875, -29206.107421875, 47876.609375, 3347.3525390625, 84.3778305053711, 25636.712890625, 33898.2734375, 0.0, 0.0, 0.0, 193.0, 0.0, 1.0, 1.0, 0.0, 0.0, 1.0, 1.0, 256.0, 1.0, 1.606468020677056E9, 2020-11-27 14:52:00.677
53.0, -29201.525390625, 15622.1474609375, -29310.109375, 47794.30859375, 3288.612060546875, 40.63547134399414, 25562.75, 33859.71875, 0.0, 0.0, 0.0, 193.0, 0.0, 1.0, 1.0, 0.0, 0.0, 1.0, 1.0, 256.0, 1.0, 1.606468020677059E9, 2020-11-27 14:52:00.677
54.0, -29210.287109375, 15635.15625, -29294.462890625, 47806.4453125, 3295.83154296875, 59.88032150268555, 25572.18359375, 33892.640625, 0.0, 0.0, 0.0, 193.0, 0.0, 1.0, 1.0, 0.0, 0.0, 1.0, 1.0, 256.0, 1.0, 1.606468020677064E9, 2020-11-27 14:52:00.677
55.0, -28989.384765625, 15867.369140625, -29076.220703125, 47994.69140625, 3415.41357421875, 159.770263671875, 25712.619140625, 33986.7421875, 0.0, 0.0, 0.0, 193.0, 0.0, 1.0, 1.0, 0.0, 0.0, 1.0, 1.0, 256.0, 1.0, 1.606468020677067E9, 2020-11-27 14:52:00.677
56.0, -28999.30859375, 15850.314453125, -29089.51953125, 48000.234375, 3392.234619140625, 144.19110107421875, 25718.83203125, 33956.390625, 0.0, 0.0, 0.0, 193.0, 0.0, 1.0, 1.0, 0.0, 0.0, 1.0, 1.0, 256.0, 1.0, 1.606468020677071E9, 2020-11-27 14:52:00.677
57.0, -29093.833984375, 15745.484375, -29192.5625, 47872.7421875, 3336.5341796875, 93.60910034179688, 25650.1015625, 33904.421875, 0.0, 0.0, 0.0, 193.0, 0.0, 1.0, 1.0, 0.0, 0.0, 1.0, 1.0, 256.0, 1.0, 1.606468020677076E9, 2020-11-27 14:52:00.677
58.0, -29202.93359375, 15620.248046875, -29316.279296875, 47767.33203125, 3279.135009765625, 36.88037872314453, 25554.7265625, 33853.83984375, 0.0, 0.0, 0.0, 193.0, 0.0, 1.0, 1.0, 0.0, 0.0, 1.0, 1.0, 256.0, 1.0, 1.60646802067708E9, 2020-11-27 14:52:00.677
59.0, -29199.111328125, 15629.9931640625, -29309.05859375, 47817.51171875, 3296.27880859375, 47.45275115966797, 25560.380859375, 33892.12890625, 0.0, 0.0, 0.0, 193.0, 0.0, 1.0, 1.0, 0.0, 0.0, 1.0, 1.0, 256.0, 1.0, 1.606468020677084E9, 2020-11-27 14:52:00.677
60.0, -28978.833984375, 15864.5302734375, -29079.865234375, 48009.48828125, 3421.962646484375, 153.9811553955078, 25719.34765625, 33992.26171875, 0.0, 0.0, 0.0, 193.0, 0.0, 1.0, 1.0, 0.0, 0.0, 1.0, 1.0, 256.0, 1.0, 1.606468020677088E9, 2020-11-27 14:52:00.677
61.0, -28998.525390625, 15853.5107421875, -29086.48046875, 48037.80859375, 3394.62646484375, 135.09393310546875, 25711.791015625, 33949.75, 0.0, 0.0, 0.0, 193.0, 0.0, 1.0, 1.0, 0.0, 0.0, 1.0, 1.0, 256.0, 1.0, 1.606468020733947E9, 2020-11-27 14:52:00.733
62.0, -29098.05859375, 15756.90625, -29174.63671875, 47904.59375, 3347.9111328125, 106.10372924804688, 25652.58203125, 33907.37109375, 0.0, 0.0, 0.0, 193.0, 0.0, 1.0, 1.0, 0.0, 0.0, 1.0, 1.0, 256.0, 1.0, 1.606468020733964E9, 2020-11-27 14:52:00.733
63.0, -29202.978515625, 15637.3916015625, -29294.10546875, 47771.21875, 3291.920166015625, 63.85893249511719, 25577.30078125, 33872.75, 0.0, 0.0, 0.0, 193.0, 0.0, 1.0, 1.0, 0.0, 0.0, 1.0, 1.0, 256.0, 1.0, 1.606468020733968E9, 2020-11-27 14:52:00.733
64.0, -29193.880859375, 15634.91015625, -29310.646484375, 47810.2890625, 3296.748046875, 49.82203674316406, 25554.14453125, 33895.03515625, 0.0, 0.0, 0.0, 193.0, 0.0, 1.0, 1.0, 0.0, 0.0, 1.0, 1.0, 256.0, 1.0, 1.606468020733973E9, 2020-11-27 14:52:00.733
65.0, -28974.162109375, 15866.564453125, -29086.546875, 48004.90625, 3417.693359375, 147.476806640625, 25708.662109375, 33993.3828125, 0.0, 0.0, 0.0, 193.0, 0.0, 1.0, 1.0, 0.0, 0.0, 1.0, 1.0, 256.0, 1.0, 1.606468020733976E9, 2020-11-27 14:52:00.733
66.0, -28982.43359375, 15848.75, -29097.3203125, 47988.63671875, 3409.1103515625, 147.0521240234375, 25711.232421875, 33956.27734375, 0.0, 0.0, 0.0, 193.0, 0.0, 1.0, 1.0, 0.0, 0.0, 1.0, 1.0, 256.0, 1.0, 1.60646802073398E9, 2020-11-27 14:52:00.733
67.0, -29082.2109375, 15756.705078125, -29178.771484375, 47972.9453125, 3339.7080078125, 100.09111022949219, 25660.60546875, 33913.83203125, 0.0, 0.0, 0.0, 193.0, 0.0, 1.0, 1.0, 0.0, 0.0, 1.0, 1.0, 256.0, 1.0, 1.606468020733984E9, 2020-11-27 14:52:00.733
68.0, -29197.748046875, 15644.6787109375, -29287.6015625, 47898.2890625, 3269.635498046875, 34.26522445678711, 25577.279296875, 33870.89453125, 0.0, 0.0, 0.0, 193.0, 0.0, 1.0, 1.0, 0.0, 0.0, 1.0, 1.0, 256.0, 1.0, 1.606468020733988E9, 2020-11-27 14:52:00.733
69.0, -29194.259765625, 15646.7568359375, -29287.19921875, 47839.66015625, 3295.004638671875, 58.159236907958984, 25572.65234375, 33902.74609375, 0.0, 0.0, 0.0, 193.0, 0.0, 1.0, 1.0, 0.0, 0.0, 1.0, 1.0, 256.0, 1.0, 1.606468020733992E9, 2020-11-27 14:52:00.733
70.0, -28983.662109375, 15869.4921875, -29068.732421875, 47869.27734375, 3419.258056640625, 180.4009246826172, 25725.76171875, 34003.171875, 0.0, 0.0, 0.0, 193.0, 0.0, 1.0, 1.0, 0.0, 0.0, 1.0, 1.0, 256.0, 1.0, 1.60646802073403E9, 2020-11-27 14:52:00.734
71.0, -28990.8828125, 15853.48828125, -29084.916015625, 47878.6875, 3409.266845703125, 149.62257385253906, 25718.318359375, 33962.6484375, 0.0, 0.0, 0.0, 193.0, 0.0, 1.0, 1.0, 0.0, 0.0, 1.0, 1.0, 256.0, 1.0, 1.606468020734034E9, 2020-11-27 14:52:00.734
72.0, -29083.775390625, 15752.3017578125, -29181.162109375, 47832.0625, 3352.22509765625, 109.83647155761719, 25653.69921875, 33917.23046875, 0.0, 0.0, 0.0, 193.0, 0.0, 1.0, 1.0, 0.0, 0.0, 1.0, 1.0, 256.0, 1.0, 1.606468020734038E9, 2020-11-27 14:52:00.734
73.0, -29197.2109375, 15630.6640625, -29303.671875, 47762.4140625, 3288.34375, 49.41970443725586, 25563.107421875, 33872.16796875, 0.0, 0.0, 0.0, 193.0, 0.0, 1.0, 1.0, 0.0, 0.0, 1.0, 1.0, 256.0, 1.0, 1.606468020734042E9, 2020-11-27 14:52:00.734
74.0, -29194.8203125, 15639.26953125, -29302.041015625, 47962.57421875, 3294.714111328125, 29.079618453979492, 25549.630859375, 33896.73046875, 0.0, 0.0, 0.0, 193.0, 0.0, 1.0, 1.0, 0.0, 0.0, 1.0, 1.0, 256.0, 1.0, 1.606468020734046E9, 2020-11-27 14:52:00.734
75.0, -28973.693359375, 15867.6591796875, -29081.384765625, 48068.23046875, 3414.720703125, 150.06961059570312, 25709.04296875, 34001.2265625, 0.0, 0.0, 0.0, 193.0, 0.0, 1.0, 1.0, 0.0, 0.0, 1.0, 1.0, 256.0, 1.0, 1.60646802073405E9, 2020-11-27 14:52:00.734
76.0, -28983.818359375, 15847.9453125, -29095.935546875, 47930.765625, 3402.6953125, 147.23094177246094, 25711.1875, 33958.7578125, 0.0, 0.0, 0.0, 193.0, 0.0, 1.0, 1.0, 0.0, 0.0, 1.0, 1.0, 256.0, 1.0, 1.606468020792905E9, 2020-11-27 14:52:00.792
77.0, -29089.36328125, 15758.359375, -29166.25390625, 47833.828125, 3336.489501953125, 108.38360595703125, 25660.44921875, 33914.859375, 0.0, 0.0, 0.0, 193.0, 0.0, 1.0, 1.0, 0.0, 0.0, 1.0, 1.0, 256.0, 1.0, 1.606468020792925E9, 2020-11-27 14:52:00.792
78.0, -29203.423828125, 15645.9970703125, -29277.431640625, 47847.640625, 3268.741455078125, 34.24287033081055, 25588.544921875, 33874.4921875, 0.0, 0.0, 0.0, 193.0, 0.0, 1.0, 1.0, 0.0, 0.0, 1.0, 1.0, 256.0, 1.0, 1.606468020792929E9, 2020-11-27 14:52:00.792
79.0, -29190.28125, 15644.9462890625, -29298.017578125, 47973.859375, 3292.05419921875, 19.80364418029785, 25553.4296875, 33897.625, 0.0, 0.0, 0.0, 193.0, 0.0, 1.0, 1.0, 0.0, 0.0, 1.0, 1.0, 256.0, 1.0, 1.606468020792932E9, 2020-11-27 14:52:00.792
80.0, -28979.75, 15859.9033203125, -29087.888671875, 48044.04296875, 3414.452392578125, 135.13864135742188, 25703.677734375, 33996.33203125, 0.0, 0.0, 0.0, 193.0, 0.0, 1.0, 1.0, 0.0, 0.0, 1.0, 1.0, 256.0, 1.0, 1.606468020792936E9, 2020-11-27 14:52:00.792
81.0, -28998.19140625, 15844.1904296875, -29092.89453125, 47950.03515625, 3388.501953125, 127.04730987548828, 25716.060546875, 33962.35546875, 0.0, 0.0, 0.0, 193.0, 0.0, 1.0, 1.0, 0.0, 0.0, 1.0, 1.0, 256.0, 1.0, 1.60646802079294E9, 2020-11-27 14:52:00.792
82.0, -29094.75, 15746.9375, -29184.939453125, 47831.12109375, 3337.271728515625, 91.26216888427734, 25655.0625, 33913.5859375, 0.0, 0.0, 0.0, 193.0, 0.0, 1.0, 1.0, 0.0, 0.0, 1.0, 1.0, 256.0, 1.0, 1.606468020792944E9, 2020-11-27 14:52:00.792
83.0, -29198.328125, 15626.841796875, -29301.59375, 47698.015625, 3286.399169921875, 58.583919525146484, 25566.68359375, 33870.89453125, 0.0, 0.0, 0.0, 193.0, 0.0, 1.0, 1.0, 0.0, 0.0, 1.0, 1.0, 256.0, 1.0, 1.606468020792948E9, 2020-11-27 14:52:00.792
84.0, -29204.474609375, 15635.8271484375, -29292.8984375, 47760.265625, 3299.318603515625, 42.8259391784668, 25562.59375, 33899.05859375, 0.0, 0.0, 0.0, 193.0, 0.0, 1.0, 1.0, 0.0, 0.0, 1.0, 1.0, 256.0, 1.0, 1.606468020792952E9, 2020-11-27 14:52:00.792
85.0, -28997.69921875, 15864.015625, -29080.087890625, 48075.3359375, 3396.3251953125, 111.98223876953125, 25700.951171875, 33988.23828125, 0.0, 0.0, 0.0, 193.0, 0.0, 1.0, 1.0, 0.0, 0.0, 1.0, 1.0, 256.0, 1.0, 1.606468020792956E9, 2020-11-27 14:52:00.792
86.0, -29001.521484375, 15848.1240234375, -29096.986328125, 48109.9375, 3379.22607421875, 95.46429443359375, 25703.90234375, 33959.00390625, 0.0, 0.0, 0.0, 193.0, 0.0, 1.0, 1.0, 0.0, 0.0, 1.0, 1.0, 256.0, 1.0, 1.60646802079296E9, 2020-11-27 14:52:00.792
87.0, -29091.017578125, 15746.4453125, -29194.015625, 48021.0, 3331.61669921875, 54.67236328125, 25639.908203125, 33911.57421875, 0.0, 0.0, 0.0, 193.0, 0.0, 1.0, 1.0, 0.0, 0.0, 1.0, 1.0, 256.0, 1.0, 1.606468020792964E9, 2020-11-27 14:52:00.792
88.0, -29211.248046875, 15625.5224609375, -29307.361328125, 47894.9375, 3264.919189453125, 9.275973320007324, 25554.681640625, 33861.6640625, 0.0, 0.0, 0.0, 193.0, 0.0, 1.0, 1.0, 0.0, 0.0, 1.0, 1.0, 256.0, 1.0, 1.606468020792968E9, 2020-11-27 14:52:00.792
89.0, -29212.029296875, 15625.880859375, -29305.03515625, 47795.828125, 3283.091064453125, 36.00865936279297, 25551.306640625, 33890.80859375, 0.0, 0.0, 0.0, 193.0, 0.0, 1.0, 1.0, 0.0, 0.0, 1.0, 1.0, 256.0, 1.0, 1.606468020792972E9, 2020-11-27 14:52:00.792
90.0, -28995.44140625, 15847.38671875, -29087.798828125, 47815.1640625, 3408.931396484375, 157.22216796875, 25707.568359375, 33993.3359375, 0.0, 0.0, 0.0, 193.0, 0.0, 1.0, 1.0, 0.0, 0.0, 1.0, 1.0, 256.0, 1.0, 1.606468020792976E9, 2020-11-27 14:52:00.792
91.0, -29013.099609375, 15839.3173828125, -29089.095703125, 47837.08984375, 3388.479736328125, 141.6876983642578, 25717.46875, 33959.20703125, 0.0, 0.0, 0.0, 193.0, 0.0, 1.0, 1.0, 0.0, 0.0, 1.0, 1.0, 256.0, 1.0, 1.606468020852008E9, 2020-11-27 14:52:00.852
92.0, -29100.517578125, 15750.8935546875, -29188.11328125, 47953.51953125, 3332.779052734375, 67.03288269042969, 25644.357421875, 33907.57421875, 0.0, 0.0, 0.0, 193.0, 0.0, 1.0, 1.0, 0.0, 0.0, 1.0, 1.0, 256.0, 1.0, 1.60646802085203E9, 2020-11-27 14:52:00.852
93.0, -29205.458984375, 15636.51953125, -29296.2734375, 47916.21484375, 3275.44677734375, 23.42462730407715, 25562.9296875, 33866.7578125, 0.0, 0.0, 0.0, 193.0, 0.0, 1.0, 1.0, 0.0, 0.0, 1.0, 1.0, 256.0, 1.0, 1.606468020852034E9, 2020-11-27 14:52:00.852
94.0, -29199.55859375, 15640.9453125, -29294.619140625, 47896.5234375, 3293.328369140625, 23.84930992126465, 25562.013671875, 33899.4609375, 0.0, 0.0, 0.0, 193.0, 0.0, 1.0, 1.0, 0.0, 0.0, 1.0, 1.0, 256.0, 1.0, 1.606468020852076E9, 2020-11-27 14:52:00.852
95.0, -28986.166015625, 15855.74609375, -29090.302734375, 47949.16015625, 3409.60205078125, 127.33788299560547, 25697.375, 33991.28125, 0.0, 0.0, 0.0, 193.0, 0.0, 1.0, 1.0, 0.0, 0.0, 1.0, 1.0, 256.0, 1.0, 1.60646802085208E9, 2020-11-27 14:52:00.852
96.0, -28998.4140625, 15841.1943359375, -29099.935546875, 47901.88671875, 3389.708984375, 114.93266296386719, 25705.64453125, 33954.9375, 0.0, 0.0, 0.0, 193.0, 0.0, 1.0, 1.0, 0.0, 0.0, 1.0, 1.0, 256.0, 1.0, 1.606468020852085E9, 2020-11-27 14:52:00.852
97.0, -29090.212890625, 15755.900390625, -29182.146484375, 48028.48828125, 3327.191162109375, 57.28751754760742, 25643.685546875, 33908.35546875, 0.0, 0.0, 0.0, 193.0, 0.0, 1.0, 1.0, 0.0, 0.0, 1.0, 1.0, 256.0, 1.0, 1.606468020852089E9, 2020-11-27 14:52:00.852
98.0, -29192.80859375, 15638.4873046875, -29299.068359375, 47980.765625, 3275.9609375, 5.096197605133057, 25566.68359375, 33870.6484375, 0.0, 0.0, 0.0, 193.0, 0.0, 1.0, 1.0, 0.0, 0.0, 1.0, 1.0, 256.0, 1.0, 1.606468020852092E9, 2020-11-27 14:52:00.852
99.0, -29194.841796875, 15637.81640625, -29294.28515625, 47884.09765625, 3295.116455078125, 35.382808685302734, 25558.615234375, 33900.91015625, 0.0, 0.0, 0.0, 193.0, 0.0, 1.0, 1.0, 0.0, 0.0, 1.0, 1.0, 256.0, 1.0, 1.606468020852096E9, 2020-11-27 14:52:00.852
100.0, -28986.388671875, 15859.2998046875, -29075.685546875, 47807.765625, 3415.949951171875, 171.79550170898438, 25721.693359375, 34002.45703125, 0.0, 0.0, 0.0, 193.0, 0.0, 1.0, 1.0, 0.0, 0.0, 1.0, 1.0, 256.0, 1.0, 1.6064680208521E9, 2020-11-27 14:52:00.852
101.0, -28992.693359375, 15839.0263671875, -29102.462890625, 47892.76953125, 3406.919921875, 140.9947967529297, 25712.328125, 33956.5234375, 0.0, 0.0, 0.0, 193.0, 0.0, 1.0, 1.0, 0.0, 0.0, 1.0, 1.0, 256.0, 1.0, 1.606468020852104E9, 2020-11-27 14:52:00.852
102.0, -29089.54296875, 15752.681640625, -29187.0625, 48056.25, 3334.589599609375, 47.38569641113281, 25643.015625, 33904.19921875, 0.0, 0.0, 0.0, 193.0, 0.0, 1.0, 1.0, 0.0, 0.0, 1.0, 1.0, 256.0, 1.0, 1.606468020852108E9, 2020-11-27 14:52:00.852
103.0, -29198.015625, 15638.3076171875, -29298.083984375, 47980.2734375, 3270.194091796875, -7.331371784210205, 25556.71484375, 33864.65625, 0.0, 0.0, 0.0, 193.0, 0.0, 1.0, 1.0, 0.0, 0.0, 1.0, 1.0, 256.0, 1.0, 1.606468020852112E9, 2020-11-27 14:52:00.852
104.0, -29205.435546875, 15636.3857421875, -29297.234375, 47864.55859375, 3284.119384765625, 30.44307518005371, 25548.064453125, 33890.6953125, 0.0, 0.0, 0.0, 193.0, 0.0, 1.0, 1.0, 0.0, 0.0, 1.0, 1.0, 256.0, 1.0, 1.606468020852116E9, 2020-11-27 14:52:00.852
105.0, -28985.205078125, 15854.5166015625, -29092.626953125, 47908.63671875, 3413.2900390625, 150.9413299560547, 25702.873046875, 33992.7109375, 0.0, 0.0, 0.0, 193.0, 0.0, 1.0, 1.0, 0.0, 0.0, 1.0, 1.0, 256.0, 1.0, 1.606468020852121E9, 2020-11-27 14:52:00.852
106.0, -28992.22265625, 15838.0654296875, -29110.306640625, 47994.6484375, 3399.119140625, 112.3398666381836, 25699.587890625, 33955.18359375, 0.0, 0.0, 0.0, 193.0, 0.0, 1.0, 1.0, 0.0, 0.0, 1.0, 1.0, 256.0, 1.0, 1.606468020911802E9, 2020-11-27 14:52:00.911
107.0, -29093.07421875, 15743.16015625, -29193.76953125, 47959.5546875, 3338.165771484375, 67.43521118164062, 25640.154296875, 33908.80078125, 0.0, 0.0, 0.0, 193.0, 0.0, 1.0, 1.0, 0.0, 0.0, 1.0, 1.0, 256.0, 1.0, 1.606468020911819E9, 2020-11-27 14:52:00.911
108.0, -29207.939453125, 15631.4912109375, -29296.095703125, 47832.796875, 3272.943359375, 31.225385665893555, 25561.275390625, 33869.3046875, 0.0, 0.0, 0.0, 193.0, 0.0, 1.0, 1.0, 0.0, 0.0, 1.0, 1.0, 256.0, 1.0, 1.606468020911823E9, 2020-11-27 14:52:00.911
109.0, -29218.220703125, 15636.9443359375, -29283.48828125, 47782.6875, 3272.25048828125, 52.63835525512695, 25565.677734375, 33901.515625, 0.0, 0.0, 0.0, 193.0, 0.0, 1.0, 1.0, 0.0, 0.0, 1.0, 1.0, 256.0, 1.0, 1.606468020911827E9, 2020-11-27 14:52:00.911
110.0, -28988.35546875, 15854.6728515625, -29088.939453125, 47965.4765625, 3401.175537109375, 132.74700927734375, 25704.7734375, 33994.2734375, 0.0, 0.0, 0.0, 193.0, 0.0, 1.0, 1.0, 0.0, 0.0, 1.0, 1.0, 256.0, 1.0, 1.606468020911831E9, 2020-11-27 14:52:00.911
111.0, -28984.958984375, 15835.517578125, -29111.15625, 48075.40625, 3390.513671875, 92.78208923339844, 25692.837890625, 33956.25390625, 0.0, 0.0, 0.0, 193.0, 0.0, 1.0, 1.0, 0.0, 0.0, 1.0, 1.0, 256.0, 1.0, 1.606468020911834E9, 2020-11-27 14:52:00.911
112.0, -29083.3515625, 15741.23828125, -29201.658203125, 47963.2890625, 3332.7568359375, 53.53242492675781, 25631.2578125, 33905.60546875, 0.0, 0.0, 0.0, 193.0, 0.0, 1.0, 1.0, 0.0, 0.0, 1.0, 1.0, 256.0, 1.0, 1.606468020911838E9, 2020-11-27 14:52:00.911
113.0, -29204.2734375, 15628.16015625, -29306.48828125, 47894.48828125, 3273.032958984375, 13.098121643066406, 25554.681640625, 33863.96484375, 0.0, 0.0, 0.0, 193.0, 0.0, 1.0, 1.0, 0.0, 0.0, 1.0, 1.0, 256.0, 1.0, 1.606468020911842E9, 2020-11-27 14:52:00.911
114.0, -29211.13671875, 15633.0107421875, -29302.7109375, 47870.10546875, 3287.628662109375, 23.558738708496094, 25554.97265625, 33897.3359375, 0.0, 0.0, 0.0, 193.0, 0.0, 1.0, 1.0, 0.0, 0.0, 1.0, 1.0, 256.0, 1.0, 1.606468020911846E9, 2020-11-27 14:52:00.911
115.0, -28997.005859375, 15854.3154296875, -29088.291015625, 47957.87890625, 3406.875, 144.74989318847656, 25706.091796875, 34000.82421875, 0.0, 0.0, 0.0, 193.0, 0.0, 1.0, 1.0, 0.0, 0.0, 1.0, 1.0, 256.0, 1.0, 1.60646802091185E9, 2020-11-27 14:52:00.911
116.0, -29009.322265625, 15840.189453125, -29092.26953125, 47949.20703125, 3383.4951171875, 128.94720458984375, 25716.396484375, 33966.26953125, 0.0, 0.0, 0.0, 193.0, 0.0, 1.0, 1.0, 0.0, 0.0, 1.0, 1.0, 256.0, 1.0, 1.606468020911854E9, 2020-11-27 14:52:00.911
117.0, -29098.974609375, 15746.3564453125, -29187.666015625, 47926.140625, 3329.091064453125, 68.70925903320312, 25646.14453125, 33915.23828125, 0.0, 0.0, 0.0, 193.0, 0.0, 1.0, 1.0, 0.0, 0.0, 1.0, 1.0, 256.0, 1.0, 1.606468020911891E9, 2020-11-27 14:52:00.911
118.0, -29204.05078125, 15626.3046875, -29304.56640625, 47809.88671875, 3282.711181640625, 24.47515869140625, 25553.2734375, 33872.30078125, 0.0, 0.0, 0.0, 193.0, 0.0, 1.0, 1.0, 0.0, 0.0, 1.0, 1.0, 256.0, 1.0, 1.606468020911895E9, 2020-11-27 14:52:00.911
119.0, -29206.330078125, 15634.306640625, -29295.916015625, 47845.91796875, 3292.903564453125, 22.6646671295166, 25550.3671875, 33902.0078125, 0.0, 0.0, 0.0, 193.0, 0.0, 1.0, 1.0, 0.0, 0.0, 1.0, 1.0, 256.0, 1.0, 1.606468020911899E9, 2020-11-27 14:52:00.911
120.0, -28993.095703125, 15855.5888671875, -29085.7421875, 48030.65625, 3406.2939453125, 111.8481216430664, 25709.892578125, 34003.8203125, 0.0, 0.0, 0.0, 193.0, 0.0, 1.0, 1.0, 0.0, 0.0, 1.0, 1.0, 256.0, 1.0, 1.606468020911904E9, 2020-11-27 14:52:00.911
121.0, -28997.654296875, 15834.1318359375, -29110.396484375, 48114.96875, 3390.62548828125, 92.29035186767578, 25694.669921875, 33957.37109375, 0.0, 0.0, 0.0, 193.0, 0.0, 1.0, 1.0, 0.0, 0.0, 1.0, 1.0, 256.0, 1.0, 1.606468020973025E9, 2020-11-27 14:52:00.973
122.0, -29098.595703125, 15735.962890625, -29202.486328125, 47991.046875, 3332.734375, 49.97850036621094, 25631.68359375, 33907.1015625, 0.0, 0.0, 0.0, 193.0, 0.0, 1.0, 1.0, 0.0, 0.0, 1.0, 1.0, 256.0, 1.0, 1.606468020973044E9, 2020-11-27 14:52:00.973
123.0, -29216.9921875, 15623.734375, -29305.28125, 47884.20703125, 3264.516845703125, 8.18073844909668, 25553.408203125, 33869.3515625, 0.0, 0.0, 0.0, 193.0, 0.0, 1.0, 1.0, 0.0, 0.0, 1.0, 1.0, 256.0, 1.0, 1.606468020973048E9, 2020-11-27 14:52:00.973
124.0, -29213.9296875, 15625.8134765625, -29303.783203125, 47852.6015625, 3277.793701171875, 25.16806411743164, 25549.205078125, 33903.28125, 0.0, 0.0, 0.0, 193.0, 0.0, 1.0, 1.0, 0.0, 0.0, 1.0, 1.0, 256.0, 1.0, 1.606468020973052E9, 2020-11-27 14:52:00.973
125.0, -28999.80078125, 15848.9736328125, -29084.0, 47924.57421875, 3399.72265625, 138.4467010498047, 25706.919921875, 34003.9296875, 0.0, 0.0, 0.0, 193.0, 0.0, 1.0, 1.0, 0.0, 0.0, 1.0, 1.0, 256.0, 1.0, 1.606468020973056E9, 2020-11-27 14:52:00.973
126.0, -28991.8203125, 15842.3798828125, -29091.822265625, 47888.07421875, 3397.040283203125, 135.58567810058594, 25717.4921875, 33969.28515625, 0.0, 0.0, 0.0, 193.0, 0.0, 1.0, 1.0, 0.0, 0.0, 1.0, 1.0, 256.0, 1.0, 1.60646802097306E9, 2020-11-27 14:52:00.973
127.0, -29068.53125, 15752.5927734375, -29184.962890625, 47928.84375, 3352.82861328125, 82.2544174194336, 25645.2734375, 33920.0234375, 0.0, 0.0, 0.0, 193.0, 0.0, 1.0, 1.0, 0.0, 0.0, 1.0, 1.0, 256.0, 1.0, 1.606468020973063E9, 2020-11-27 14:52:00.973
128.0, -29206.263671875, 15626.1484375, -29300.9453125, 47881.48046875, 3279.87255859375, 26.799739837646484, 25560.158203125, 33874.24609375, 0.0, 0.0, 0.0, 193.0, 0.0, 1.0, 1.0, 0.0, 0.0, 1.0, 1.0, 256.0, 1.0, 1.606468020973067E9, 2020-11-27 14:52:00.973
129.0, -29225.93359375, 15618.3037109375, -29309.05859375, 47831.546875, 3288.63427734375, 36.38863754272461, 25553.09375, 33903.03515625, 0.0, 0.0, 0.0, 193.0, 0.0, 1.0, 1.0, 0.0, 0.0, 1.0, 1.0, 256.0, 1.0, 1.606468020973071E9, 2020-11-27 14:52:00.973
130.0, -29005.322265625, 15850.9853515625, -29080.333984375, 48015.546875, 3403.79052734375, 136.79266357421875, 25700.50390625, 33999.55078125, 0.0, 0.0, 0.0, 193.0, 0.0, 1.0, 1.0, 0.0, 0.0, 1.0, 1.0, 256.0, 1.0, 1.606468020973075E9, 2020-11-27 14:52:00.973
131.0, -29006.818359375, 15847.296875, -29083.552734375, 48043.640625, 3391.139404296875, 113.45745086669922, 25719.79296875, 33971.25390625, 0.0, 0.0, 0.0, 193.0, 0.0, 1.0, 1.0, 0.0, 0.0, 1.0, 1.0, 256.0, 1.0, 1.606468020973078E9, 2020-11-27 14:52:00.973
132.0, -29093.052734375, 15743.4951171875, -29194.55078125, 48007.65625, 3350.682861328125, 66.69760131835938, 25651.44140625, 33924.11328125, 0.0, 0.0, 0.0, 193.0, 0.0, 1.0, 1.0, 0.0, 0.0, 1.0, 1.0, 256.0, 1.0, 1.606468020973083E9, 2020-11-27 14:52:00.973
133.0, -29207.849609375, 15619.845703125, -29310.265625, 47961.61328125, 3284.119384765625, 7.510185718536377, 25556.224609375, 33873.5546875, 0.0, 0.0, 0.0, 193.0, 0.0, 1.0, 1.0, 0.0, 0.0, 1.0, 1.0, 256.0, 1.0, 1.606468020973087E9, 2020-11-27 14:52:00.973
134.0, -29219.361328125, 15624.3828125, -29300.810546875, 47936.01953125, 3287.181640625, 28.744342803955078, 25547.373046875, 33900.8671875, 0.0, 0.0, 0.0, 193.0, 0.0, 1.0, 1.0, 0.0, 0.0, 1.0, 1.0, 256.0, 1.0, 1.60646802097309E9, 2020-11-27 14:52:00.973
135.0, -29005.232421875, 15849.3974609375, -29084.40234375, 47941.80859375, 3415.48046875, 163.90533447265625, 25711.345703125, 34004.84765625, 0.0, 0.0, 0.0, 193.0, 0.0, 1.0, 1.0, 0.0, 0.0, 1.0, 1.0, 256.0, 1.0, 1.606468020973094E9, 2020-11-27 14:52:00.973
136.0, -29006.505859375, 15834.1982421875, -29102.103515625, 48006.31640625, 3392.078369140625, 111.98223876953125, 25699.56640625, 33960.97265625, 0.0, 0.0, 0.0, 193.0, 0.0, 1.0, 1.0, 0.0, 0.0, 1.0, 1.0, 256.0, 1.0, 1.606468021032988E9, 2020-11-27 14:52:01.032
137.0, -29104.138671875, 15735.4482421875, -29190.349609375, 47888.296875, 3333.24853515625, 62.83074951171875, 25637.986328125, 33914.8359375, 0.0, 0.0, 0.0, 193.0, 0.0, 1.0, 1.0, 0.0, 0.0, 1.0, 1.0, 256.0, 1.0, 1.606468021033009E9, 2020-11-27 14:52:01.033
138.0, -29208.453125, 15610.345703125, -29317.015625, 47719.20703125, 3281.75, 17.188491821289062, 25554.212890625, 33873.6640625, 0.0, 0.0, 0.0, 193.0, 0.0, 1.0, 1.0, 0.0, 0.0, 1.0, 1.0, 256.0, 1.0, 1.606468021033014E9, 2020-11-27 14:52:01.033
139.0, -29213.9296875, 15621.0302734375, -29301.75, 47886.5078125, 3286.823974609375, 27.939680099487305, 25554.32421875, 33900.17578125, 0.0, 0.0, 0.0, 193.0, 0.0, 1.0, 1.0, 0.0, 0.0, 1.0, 1.0, 256.0, 1.0, 1.606468021033019E9, 2020-11-27 14:52:01.033
140.0, -29006.439453125, 15851.3876953125, -29076.087890625, 48073.796875, 3394.58154296875, 135.29510498046875, 25710.943359375, 34003.57421875, 0.0, 0.0, 0.0, 193.0, 0.0, 1.0, 1.0, 0.0, 0.0, 1.0, 1.0, 256.0, 1.0, 1.606468021033066E9, 2020-11-27 14:52:01.033
141.0, -29012.048828125, 15833.0810546875, -29097.544921875, 48053.58984375, 3385.976318359375, 107.78010559082031, 25702.29296875, 33968.30078125, 0.0, 0.0, 0.0, 193.0, 0.0, 1.0, 1.0, 0.0, 0.0, 1.0, 1.0, 256.0, 1.0, 1.60646802103307E9, 2020-11-27 14:52:01.033
142.0, -29102.8203125, 15735.873046875, -29197.12109375, 48006.515625, 3332.22021484375, 56.03582000732422, 25629.447265625, 33919.41796875, 0.0, 0.0, 0.0, 193.0, 0.0, 1.0, 1.0, 0.0, 0.0, 1.0, 1.0, 256.0, 1.0, 1.606468021033074E9, 2020-11-27 14:52:01.033
143.0, -29211.224609375, 15614.615234375, -29318.4921875, 47945.16015625, 3274.552734375, -6.906688690185547, 25543.572265625, 33876.81640625, 0.0, 0.0, 0.0, 193.0, 0.0, 1.0, 1.0, 0.0, 0.0, 1.0, 1.0, 256.0, 1.0, 1.606468021033078E9, 2020-11-27 14:52:01.033
144.0, -29214.712890625, 15614.16796875, -29319.095703125, 47898.2890625, 3279.000732421875, 4.447997093200684, 25537.404296875, 33899.19140625, 0.0, 0.0, 0.0, 193.0, 0.0, 1.0, 1.0, 0.0, 0.0, 1.0, 1.0, 256.0, 1.0, 1.606468021033082E9, 2020-11-27 14:52:01.033
145.0, -29006.9296875, 15839.5859375, -29094.05859375, 47960.5390625, 3388.41259765625, 124.72273254394531, 25691.228515625, 33995.81640625, 0.0, 0.0, 0.0, 193.0, 0.0, 1.0, 1.0, 0.0, 0.0, 1.0, 1.0, 256.0, 1.0, 1.606468021033087E9, 2020-11-27 14:52:01.033
146.0, -29019.470703125, 15825.3251953125, -29093.7890625, 47839.94921875, 3376.163818359375, 143.98992919921875, 25706.29296875, 33964.6796875, 0.0, 0.0, 0.0, 193.0, 0.0, 1.0, 1.0, 0.0, 0.0, 1.0, 1.0, 256.0, 1.0, 1.606468021033092E9, 2020-11-27 14:52:01.033
147.0, -29108.4296875, 15728.0283203125, -29194.931640625, 47773.74609375, 3338.00927734375, 103.84619903564453, 25649.095703125, 33920.44921875, 0.0, 0.0, 0.0, 193.0, 0.0, 1.0, 1.0, 0.0, 0.0, 1.0, 1.0, 256.0, 1.0, 1.606468021033098E9, 2020-11-27 14:52:01.033
148.0, -29211.650390625, 15608.423828125, -29322.603515625, 47906.3359375, 3277.07861328125, -6.526709079742432, 25545.763671875, 33867.3828125, 0.0, 0.0, 0.0, 193.0, 0.0, 1.0, 1.0, 0.0, 0.0, 1.0, 1.0, 256.0, 1.0, 1.606468021033102E9, 2020-11-27 14:52:01.033
149.0, -29213.169921875, 15612.693359375, -29321.0625, 47998.625, 3280.25244140625, -1.2516976594924927, 25535.123046875, 33896.328125, 0.0, 0.0, 0.0, 193.0, 0.0, 1.0, 1.0, 0.0, 0.0, 1.0, 1.0, 256.0, 1.0, 1.606468021033107E9, 2020-11-27 14:52:01.033
150.0, -29003.599609375, 15839.80859375, -29095.466796875, 48010.671875, 3394.9169921875, 132.7693634033203, 25695.5859375, 34003.23828125, 0.0, 0.0, 0.0, 193.0, 0.0, 1.0, 1.0, 0.0, 0.0, 1.0, 1.0, 256.0, 1.0, 1.606468021033111E9, 2020-11-27 14:52:01.033
151.0, -29011.267578125, 15830.98046875, -29094.416015625, 48003.74609375, 3384.38916015625, 127.15907287597656, 25709.17578125, 33973.890625, 0.0, 0.0, 0.0, 193.0, 0.0, 1.0, 1.0, 0.0, 0.0, 1.0, 1.0, 256.0, 1.0, 1.606468021091824E9, 2020-11-27 14:52:01.091
152.0, -29103.7578125, 15730.1962890625, -29189.052734375, 47933.0, 3333.04736328125, 76.13003540039062, 25641.49609375, 33921.98828125, 0.0, 0.0, 0.0, 193.0, 0.0, 1.0, 1.0, 0.0, 0.0, 1.0, 1.0, 256.0, 1.0, 1.606468021091843E9, 2020-11-27 14:52:01.091
153.0, -29221.57421875, 15609.8544921875, -29307.3828125, 47879.46875, 3277.592529296875, 25.458635330200195, 25553.697265625, 33875.609375, 0.0, 0.0, 0.0, 193.0, 0.0, 1.0, 1.0, 0.0, 0.0, 1.0, 1.0, 256.0, 1.0, 1.606468021091847E9, 2020-11-27 14:52:01.091
154.0, -29218.064453125, 15610.0107421875, -29313.552734375, 47851.9765625, 3285.9521484375, 36.6568603515625, 25544.04296875, 33903.640625, 0.0, 0.0, 0.0, 193.0, 0.0, 1.0, 1.0, 0.0, 0.0, 1.0, 1.0, 256.0, 1.0, 1.606468021091851E9, 2020-11-27 14:52:01.091
155.0, -29001.990234375, 15832.7236328125, -29100.65234375, 47993.12890625, 3404.81884765625, 133.5740203857422, 25698.08984375, 34001.2265625, 0.0, 0.0, 0.0, 193.0, 0.0, 1.0, 1.0, 0.0, 0.0, 1.0, 1.0, 256.0, 1.0, 1.606468021091854E9, 2020-11-27 14:52:01.091
156.0, -29013.48046875, 15822.84375, -29105.412109375, 48100.66015625, 3383.048095703125, 95.84427642822266, 25700.01171875, 33967.1640625, 0.0, 0.0, 0.0, 193.0, 0.0, 1.0, 1.0, 0.0, 0.0, 1.0, 1.0, 256.0, 1.0, 1.606468021091858E9, 2020-11-27 14:52:01.091
157.0, -29110.93359375, 15723.53515625, -29200.005859375, 48027.7734375, 3322.765625, 47.16217803955078, 25626.720703125, 33909.5390625, 0.0, 0.0, 0.0, 193.0, 0.0, 1.0, 1.0, 0.0, 0.0, 1.0, 1.0, 256.0, 1.0, 1.606468021091862E9, 2020-11-27 14:52:01.091
158.0, -29233.533203125, 15605.205078125, -29308.8359375, 47888.296875, 3257.87841796875, 6.0573225021362305, 25549.451171875, 33867.40625, 0.0, 0.0, 0.0, 193.0, 0.0, 1.0, 1.0, 0.0, 0.0, 1.0, 1.0, 256.0, 1.0, 1.606468021091866E9, 2020-11-27 14:52:01.091
159.0, -29235.701171875, 15599.2373046875, -29321.888671875, 47813.8203125, 3271.1552734375, 22.99994468688965, 25546.61328125, 33900.0859375, 0.0, 0.0, 0.0, 193.0, 0.0, 1.0, 1.0, 0.0, 0.0, 1.0, 1.0, 256.0, 1.0, 1.606468021091869E9, 2020-11-27 14:52:01.091
160.0, -29005.8125, 15825.056640625, -29108.98828125, 47946.97265625, 3396.4814453125, 137.37380981445312, 25695.98828125, 33998.74609375, 0.0, 0.0, 0.0, 193.0, 0.0, 1.0, 1.0, 0.0, 0.0, 1.0, 1.0, 256.0, 1.0, 1.606468021091873E9, 2020-11-27 14:52:01.091
161.0, -29008.025390625, 15818.1279296875, -29106.26171875, 47959.21875, 3383.852783203125, 142.02297973632812, 25700.146484375, 33961.0390625, 0.0, 0.0, 0.0, 193.0, 0.0, 1.0, 1.0, 0.0, 0.0, 1.0, 1.0, 256.0, 1.0, 1.606468021091876E9, 2020-11-27 14:52:01.091
162.0, -29099.376953125, 15722.2392578125, -29196.451171875, 47860.42578125, 3345.385498046875, 93.72086334228516, 25641.98828125, 33909.00390625, 0.0, 0.0, 0.0, 193.0, 0.0, 1.0, 1.0, 0.0, 0.0, 1.0, 1.0, 256.0, 1.0, 1.606468021091881E9, 2020-11-27 14:52:01.091
163.0, -29211.068359375, 15619.912109375, -29290.171875, 47907.41015625, 3290.422607421875, 10.013581275939941, 25569.65625, 33867.20703125, 0.0, 0.0, 0.0, 193.0, 0.0, 1.0, 1.0, 0.0, 0.0, 1.0, 1.0, 256.0, 1.0, 1.606468021091914E9, 2020-11-27 14:52:01.091
164.0, -29201.97265625, 15631.1103515625, -29284.29296875, 47931.03515625, 3321.871337890625, 31.627717971801758, 25571.021484375, 33898.9453125, 0.0, 0.0, 0.0, 193.0, 0.0, 1.0, 1.0, 0.0, 0.0, 1.0, 1.0, 256.0, 1.0, 1.606468021091919E9, 2020-11-27 14:52:01.091
165.0, -28966.09375, 15859.5234375, -29073.740234375, 48075.203125, 3471.024658203125, 175.7964630126953, 25735.126953125, 34009.49609375, 0.0, 0.0, 0.0, 193.0, 0.0, 1.0, 1.0, 0.0, 0.0, 1.0, 1.0, 256.0, 1.0, 1.606468021091922E9, 2020-11-27 14:52:01.091
166.0, -28962.138671875, 15845.12890625, -29078.544921875, 48023.7734375, 3478.132568359375, 197.00827026367188, 25750.728515625, 33988.3984375, 0.0, 0.0, 0.0, 193.0, 0.0, 1.0, 1.0, 0.0, 0.0, 1.0, 1.0, 256.0, 1.0, 1.606468021151812E9, 2020-11-27 14:52:01.151
167.0, -29062.541015625, 15743.5849609375, -29172.982421875, 47932.15234375, 3422.946044921875, 135.67507934570312, 25685.39453125, 33953.9765625, 0.0, 0.0, 0.0, 193.0, 0.0, 1.0, 1.0, 0.0, 0.0, 1.0, 1.0, 256.0, 1.0, 1.606468021151828E9, 2020-11-27 14:52:01.151
168.0, -29191.869140625, 15629.8818359375, -29282.236328125, 47993.86328125, 3334.85791015625, 52.07956314086914, 25600.32421875, 33912.7578125, 0.0, 0.0, 0.0, 193.0, 0.0, 1.0, 1.0, 0.0, 0.0, 1.0, 1.0, 256.0, 1.0, 1.606468021151832E9, 2020-11-27 14:52:01.151
169.0, -29212.87890625, 15626.439453125, -29291.982421875, 48014.80859375, 3308.7509765625, 38.936737060546875, 25575.9375, 33933.03125, 0.0, 0.0, 0.0, 193.0, 0.0, 1.0, 1.0, 0.0, 0.0, 1.0, 1.0, 256.0, 1.0, 1.606468021151836E9, 2020-11-27 14:52:01.151
170.0, -29007.7578125, 15835.0478515625, -29090.615234375, 48020.88671875, 3408.97607421875, 140.16778564453125, 25707.27734375, 34022.640625, 0.0, 0.0, 0.0, 193.0, 0.0, 1.0, 1.0, 0.0, 0.0, 1.0, 1.0, 256.0, 1.0, 1.60646802115184E9, 2020-11-27 14:52:01.151
171.0, -29024.5, 15813.634765625, -29104.072265625, 47929.984375, 3382.80224609375, 131.40589904785156, 25705.443359375, 33978.91796875, 0.0, 0.0, 0.0, 193.0, 0.0, 1.0, 1.0, 0.0, 0.0, 1.0, 1.0, 256.0, 1.0, 1.606468021151843E9, 2020-11-27 14:52:01.151
172.0, -29120.3203125, 15711.5546875, -29200.720703125, 47769.453125, 3324.03955078125, 94.95021057128906, 25640.869140625, 33925.54296875, 0.0, 0.0, 0.0, 193.0, 0.0, 1.0, 1.0, 0.0, 0.0, 1.0, 1.0, 256.0, 1.0, 1.606468021151847E9, 2020-11-27 14:52:01.151
173.0, -29224.14453125, 15595.0576171875, -29325.978515625, 47879.26953125, 3265.45556640625, 0.24586917459964752, 25543.7734375, 33877.375, 0.0, 0.0, 0.0, 193.0, 0.0, 1.0, 1.0, 0.0, 0.0, 1.0, 1.0, 256.0, 1.0, 1.606468021151945E9, 2020-11-27 14:52:01.151
174.0, -29231.833984375, 15596.353515625, -29328.416015625, 48036.33203125, 3262.1923828125, -20.943584442138672, 25526.943359375, 33899.32421875, 0.0, 0.0, 0.0, 193.0, 0.0, 1.0, 1.0, 0.0, 0.0, 1.0, 1.0, 256.0, 1.0, 1.606468021151953E9, 2020-11-27 14:52:01.151
175.0, -29013.681640625, 15821.927734375, -29108.251953125, 48066.73046875, 3392.39111328125, 121.21350860595703, 25687.80859375, 34000.37890625, 0.0, 0.0, 0.0, 193.0, 0.0, 1.0, 1.0, 0.0, 0.0, 1.0, 1.0, 256.0, 1.0, 1.606468021151957E9, 2020-11-27 14:52:01.151
176.0, -29018.978515625, 15816.8984375, -29103.6015625, 47988.546875, 3378.890625, 128.88015747070312, 25702.671875, 33968.01171875, 0.0, 0.0, 0.0, 193.0, 0.0, 1.0, 1.0, 0.0, 0.0, 1.0, 1.0, 256.0, 1.0, 1.606468021151962E9, 2020-11-27 14:52:01.151
177.0, -29109.078125, 15712.873046875, -29206.888671875, 47880.80859375, 3331.728515625, 78.99105834960938, 25638.208984375, 33918.19140625, 0.0, 0.0, 0.0, 193.0, 0.0, 1.0, 1.0, 0.0, 0.0, 1.0, 1.0, 256.0, 1.0, 1.606468021151966E9, 2020-11-27 14:52:01.151
178.0, -29216.322265625, 15587.994140625, -29337.021484375, 47884.7890625, 3273.94921875, 2.034008741378784, 25538.3203125, 33871.296875, 0.0, 0.0, 0.0, 193.0, 0.0, 1.0, 1.0, 0.0, 0.0, 1.0, 1.0, 256.0, 1.0, 1.606468021151996E9, 2020-11-27 14:52:01.151
179.0, -29226.669921875, 15599.662109375, -29323.23046875, 47987.5390625, 3268.339111328125, -5.856156826019287, 25534.38671875, 33901.13671875, 0.0, 0.0, 0.0, 193.0, 0.0, 1.0, 1.0, 0.0, 0.0, 1.0, 1.0, 256.0, 1.0, 1.606468021152E9, 2020-11-27 14:52:01.152
180.0, -29014.0390625, 15834.1982421875, -29088.6484375, 48069.7265625, 3392.18994140625, 129.95303344726562, 25698.873046875, 34005.80859375, 0.0, 0.0, 0.0, 193.0, 0.0, 1.0, 1.0, 0.0, 0.0, 1.0, 1.0, 256.0, 1.0, 1.606468021152004E9, 2020-11-27 14:52:01.152
181.0, -29023.8515625, 15823.0009765625, -29092.8515625, 47992.58984375, 3377.750732421875, 129.8189239501953, 25713.3125, 33972.1484375, 0.0, 0.0, 0.0, 193.0, 0.0, 1.0, 1.0, 0.0, 0.0, 1.0, 1.0, 256.0, 1.0, 1.60646802121388E9, 2020-11-27 14:52:01.213
182.0, -29107.916015625, 15718.0810546875, -29205.4140625, 47954.97265625, 3328.487548828125, 72.26318359375, 25634.87890625, 33920.6484375, 0.0, 0.0, 0.0, 193.0, 0.0, 1.0, 1.0, 0.0, 0.0, 1.0, 1.0, 256.0, 1.0, 1.606468021213906E9, 2020-11-27 14:52:01.213
183.0, -29216.076171875, 15595.6611328125, -29326.001953125, 47904.5703125, 3278.888916015625, 19.24485206604004, 25545.337890625, 33874.42578125, 0.0, 0.0, 0.0, 193.0, 0.0, 1.0, 1.0, 0.0, 0.0, 1.0, 1.0, 256.0, 1.0, 1.60646802121391E9, 2020-11-27 14:52:01.213
184.0, -29224.525390625, 15593.0908203125, -29325.935546875, 47860.0234375, 3290.1767578125, 22.97759246826172, 25547.55078125, 33904.19921875, 0.0, 0.0, 0.0, 193.0, 0.0, 1.0, 1.0, 0.0, 0.0, 1.0, 1.0, 256.0, 1.0, 1.606468021213915E9, 2020-11-27 14:52:01.213
185.0, -29010.708984375, 15823.8271484375, -29101.880859375, 47946.2578125, 3409.02099609375, 146.04629516601562, 25703.185546875, 34002.9921875, 0.0, 0.0, 0.0, 193.0, 0.0, 1.0, 1.0, 0.0, 0.0, 1.0, 1.0, 256.0, 1.0, 1.606468021213919E9, 2020-11-27 14:52:01.213
186.0, -29016.7421875, 15811.421875, -29114.21875, 48063.4453125, 3387.183349609375, 108.54006958007812, 25701.77734375, 33968.52734375, 0.0, 0.0, 0.0, 193.0, 0.0, 1.0, 1.0, 0.0, 0.0, 1.0, 1.0, 256.0, 1.0, 1.606468021213923E9, 2020-11-27 14:52:01.213
187.0, -29108.876953125, 15715.48828125, -29213.662109375, 48095.8125, 3316.23876953125, 29.928985595703125, 25627.34765625, 33916.37890625, 0.0, 0.0, 0.0, 193.0, 0.0, 1.0, 1.0, 0.0, 0.0, 1.0, 1.0, 256.0, 1.0, 1.606468021213986E9, 2020-11-27 14:52:01.213
188.0, -29229.8671875, 15593.5595703125, -29324.458984375, 47950.66015625, 3242.321533203125, -21.256507873535156, 25537.44921875, 33863.78515625, 0.0, 0.0, 0.0, 193.0, 0.0, 1.0, 1.0, 0.0, 0.0, 1.0, 1.0, 256.0, 1.0, 1.60646802121399E9, 2020-11-27 14:52:01.213
189.0, -29231.587890625, 15594.275390625, -29319.744140625, 47818.60546875, 3269.25537109375, 16.920269012451172, 25542.677734375, 33898.8984375, 0.0, 0.0, 0.0, 193.0, 0.0, 1.0, 1.0, 0.0, 0.0, 1.0, 1.0, 256.0, 1.0, 1.606468021213994E9, 2020-11-27 14:52:01.213
190.0, -29012.451171875, 15821.63671875, -29105.63671875, 47899.5390625, 3398.58251953125, 138.33494567871094, 25703.41015625, 34003.171875, 0.0, 0.0, 0.0, 193.0, 0.0, 1.0, 1.0, 0.0, 0.0, 1.0, 1.0, 256.0, 1.0, 1.606468021213998E9, 2020-11-27 14:52:01.213
191.0, -29015.021484375, 15807.3095703125, -29127.5625, 48037.36328125, 3376.923828125, 98.68294525146484, 25688.92578125, 33959.765625, 0.0, 0.0, 0.0, 193.0, 0.0, 1.0, 1.0, 0.0, 0.0, 1.0, 1.0, 256.0, 1.0, 1.606468021214002E9, 2020-11-27 14:52:01.214
192.0, -29106.484375, 15704.4912109375, -29227.83203125, 48047.10546875, 3327.146484375, 45.01641082763672, 25618.80859375, 33906.3203125, 0.0, 0.0, 0.0, 193.0, 0.0, 1.0, 1.0, 0.0, 0.0, 1.0, 1.0, 256.0, 1.0, 1.606468021214008E9, 2020-11-27 14:52:01.214
193.0, -29220.345703125, 15589.9609375, -29335.0546875, 48002.76171875, 3268.339111328125, -8.761883735656738, 25540.3984375, 33867.8984375, 0.0, 0.0, 0.0, 193.0, 0.0, 1.0, 1.0, 0.0, 0.0, 1.0, 1.0, 256.0, 1.0, 1.606468021214012E9, 2020-11-27 14:52:01.214
194.0, -29232.34765625, 15588.888671875, -29332.328125, 47936.2421875, 3269.724853515625, 2.436340093612671, 25537.650390625, 33899.48046875, 0.0, 0.0, 0.0, 193.0, 0.0, 1.0, 1.0, 0.0, 0.0, 1.0, 1.0, 256.0, 1.0, 1.606468021214016E9, 2020-11-27 14:52:01.214
195.0, -29010.306640625, 15815.5126953125, -29108.765625, 47960.203125, 3387.160888671875, 137.55262756347656, 25690.71484375, 34001.96484375, 0.0, 0.0, 0.0, 193.0, 0.0, 1.0, 1.0, 0.0, 0.0, 1.0, 1.0, 256.0, 1.0, 1.60646802121402E9, 2020-11-27 14:52:01.214
196.0, -29022.263671875, 15806.3935546875, -29110.0390625, 47932.93359375, 3381.908203125, 138.33494567871094, 25704.1484375, 33970.828125, 0.0, 0.0, 0.0, 193.0, 0.0, 1.0, 1.0, 0.0, 0.0, 1.0, 1.0, 256.0, 1.0, 1.606468021272334E9, 2020-11-27 14:52:01.272
197.0, -29113.681640625, 15711.666015625, -29211.181640625, 48012.86328125, 3332.667236328125, 55.36526870727539, 25631.212890625, 33923.0859375, 0.0, 0.0, 0.0, 193.0, 0.0, 1.0, 1.0, 0.0, 0.0, 1.0, 1.0, 256.0, 1.0, 1.606468021272355E9, 2020-11-27 14:52:01.272
198.0, -29232.66015625, 15599.86328125, -29317.462890625, 48014.36328125, 3260.09130859375, -8.851290702819824, 25555.21875, 33878.8515625, 0.0, 0.0, 0.0, 193.0, 0.0, 1.0, 1.0, 0.0, 0.0, 1.0, 1.0, 256.0, 1.0, 1.606468021272359E9, 2020-11-27 14:52:01.272
199.0, -29235.23046875, 15600.8916015625, -29321.173828125, 47997.10546875, 3269.568359375, 5.096197605133057, 25537.806640625, 33902.1640625, 0.0, 0.0, 0.0, 193.0, 0.0, 1.0, 1.0, 0.0, 0.0, 1.0, 1.0, 256.0, 1.0, 1.606468021272363E9, 2020-11-27 14:52:01.272
200.0, -29004.986328125, 15816.6298828125, -29114.330078125, 48056.8515625, 3403.969482421875, 122.91223907470703, 25690.78125, 34006.859375, 0.0, 0.0, 0.0, 193.0, 0.0, 1.0, 1.0, 0.0, 0.0, 1.0, 1.0, 256.0, 1.0, 1.606468021272367E9, 2020-11-27 14:52:01.272
201.0, -28997.005859375, 15805.029296875, -29129.931640625, 48044.84765625, 3393.41943359375, 113.97154235839844, 25694.939453125, 33973.7578125, 0.0, 0.0, 0.0, 193.0, 0.0, 1.0, 1.0, 0.0, 0.0, 1.0, 1.0, 256.0, 1.0, 1.606468021272371E9, 2020-11-27 14:52:01.272
202.0, -29100.494140625, 15705.453125, -29224.837890625, 47962.59375, 3326.341796875, 59.477989196777344, 25626.67578125, 33916.109375, 0.0, 0.0, 0.0, 193.0, 0.0, 1.0, 1.0, 0.0, 0.0, 1.0, 1.0, 256.0, 1.0, 1.606468021272375E9, 2020-11-27 14:52:01.272
203.0, -29225.93359375, 15586.0498046875, -29330.875, 47885.16796875, 3259.733642578125, 12.673439025878906, 25543.326171875, 33873.8671875, 0.0, 0.0, 0.0, 193.0, 0.0, 1.0, 1.0, 0.0, 0.0, 1.0, 1.0, 256.0, 1.0, 1.606468021272489E9, 2020-11-27 14:52:01.272
204.0, -29232.705078125, 15587.681640625, -29324.861328125, 47787.15625, 3287.226318359375, 51.83369445800781, 25550.748046875, 33914.2578125, 0.0, 0.0, 0.0, 193.0, 0.0, 1.0, 1.0, 0.0, 0.0, 1.0, 1.0, 256.0, 1.0, 1.606468021272496E9, 2020-11-27 14:52:01.272
205.0, -29006.416015625, 15820.7431640625, -29100.740234375, 47957.1171875, 3409.17724609375, 151.03073120117188, 25711.859375, 34015.95703125, 0.0, 0.0, 0.0, 193.0, 0.0, 1.0, 1.0, 0.0, 0.0, 1.0, 1.0, 256.0, 1.0, 1.6064680212725E9, 2020-11-27 14:52:01.272
206.0, -29004.875, 15807.2197265625, -29122.244140625, 48096.8828125, 3388.501953125, 98.951171875, 25698.984375, 33973.0625, 0.0, 0.0, 0.0, 193.0, 0.0, 1.0, 1.0, 0.0, 0.0, 1.0, 1.0, 256.0, 1.0, 1.606468021272504E9, 2020-11-27 14:52:01.272
207.0, -29096.962890625, 15713.8125, -29218.892578125, 48087.18359375, 3332.22021484375, 53.15244674682617, 25624.486328125, 33920.8046875, 0.0, 0.0, 0.0, 193.0, 0.0, 1.0, 1.0, 0.0, 0.0, 1.0, 1.0, 256.0, 1.0, 1.606468021272509E9, 2020-11-27 14:52:01.272
208.0, -29210.822265625, 15600.712890625, -29325.666015625, 47956.94140625, 3269.300048828125, 14.260412216186523, 25550.45703125, 33878.0, 0.0, 0.0, 0.0, 193.0, 0.0, 1.0, 1.0, 0.0, 0.0, 1.0, 1.0, 256.0, 1.0, 1.606468021272513E9, 2020-11-27 14:52:01.272
209.0, -29225.865234375, 15590.51953125, -29323.564453125, 47891.875, 3279.537353515625, 29.750171661376953, 25551.865234375, 33906.12109375, 0.0, 0.0, 0.0, 193.0, 0.0, 1.0, 1.0, 0.0, 0.0, 1.0, 1.0, 256.0, 1.0, 1.606468021272517E9, 2020-11-27 14:52:01.272
210.0, -29008.94140625, 15812.16015625, -29115.291015625, 47967.35546875, 3408.730224609375, 128.1201934814453, 25694.0, 34005.44921875, 0.0, 0.0, 0.0, 193.0, 0.0, 1.0, 1.0, 0.0, 0.0, 1.0, 1.0, 256.0, 1.0, 1.60646802127256E9, 2020-11-27 14:52:01.272
211.0, -29007.376953125, 15806.7509765625, -29115.134765625, 48036.421875, 3378.60009765625, 103.0191879272461, 25696.1015625, 33972.03515625, 0.0, 0.0, 0.0, 193.0, 0.0, 1.0, 1.0, 0.0, 0.0, 1.0, 1.0, 256.0, 1.0, 1.606468021332958E9, 2020-11-27 14:52:01.332
212.0, -29091.263671875, 15711.912109375, -29214.6015625, 48031.3046875, 3332.488525390625, 56.102874755859375, 25628.28515625, 33920.53515625, 0.0, 0.0, 0.0, 193.0, 0.0, 1.0, 1.0, 0.0, 0.0, 1.0, 1.0, 256.0, 1.0, 1.606468021332977E9, 2020-11-27 14:52:01.332
213.0, -29206.912109375, 15595.794921875, -29339.658203125, 48025.0, 3277.9501953125, -8.806587219238281, 25534.251953125, 33872.703125, 0.0, 0.0, 0.0, 193.0, 0.0, 1.0, 1.0, 0.0, 0.0, 1.0, 1.0, 256.0, 1.0, 1.606468021332981E9, 2020-11-27 14:52:01.332
214.0, -29214.310546875, 15594.6103515625, -29334.205078125, 47967.15625, 3282.420654296875, 7.286668300628662, 25532.060546875, 33904.2421875, 0.0, 0.0, 0.0, 193.0, 0.0, 1.0, 1.0, 0.0, 0.0, 1.0, 1.0, 256.0, 1.0, 1.606468021332985E9, 2020-11-27 14:52:01.332
215.0, -29023.60546875, 15813.634765625, -29103.802734375, 47946.1875, 3401.22021484375, 145.82276916503906, 25702.6953125, 34007.86328125, 0.0, 0.0, 0.0, 193.0, 0.0, 1.0, 1.0, 0.0, 0.0, 1.0, 1.0, 256.0, 1.0, 1.606468021332989E9, 2020-11-27 14:52:01.332
216.0, -29035.5625, 15802.66015625, -29112.720703125, 47928.015625, 3385.484619140625, 125.16976165771484, 25707.947265625, 33971.921875, 0.0, 0.0, 0.0, 193.0, 0.0, 1.0, 1.0, 0.0, 0.0, 1.0, 1.0, 256.0, 1.0, 1.606468021332993E9, 2020-11-27 14:52:01.332
217.0, -29104.16015625, 15705.4306640625, -29224.16796875, 47943.015625, 3337.5400390625, 78.07463836669922, 25632.599609375, 33920.08984375, 0.0, 0.0, 0.0, 193.0, 0.0, 1.0, 1.0, 0.0, 0.0, 1.0, 1.0, 256.0, 1.0, 1.606468021332997E9, 2020-11-27 14:52:01.332
218.0, -29202.642578125, 15596.9345703125, -29325.21875, 47891.5625, 3285.169921875, 20.54125213623047, 25554.591796875, 33878.3828125, 0.0, 0.0, 0.0, 193.0, 0.0, 1.0, 1.0, 0.0, 0.0, 1.0, 1.0, 256.0, 1.0, 1.606468021333001E9, 2020-11-27 14:52:01.333
219.0, -29191.17578125, 15594.9453125, -29332.6171875, 47887.47265625, 3297.84326171875, 27.671459197998047, 25543.39453125, 33908.78125, 0.0, 0.0, 0.0, 193.0, 0.0, 1.0, 1.0, 0.0, 0.0, 1.0, 1.0, 256.0, 1.0, 1.606468021333005E9, 2020-11-27 14:52:01.333
220.0, -28952.01171875, 15801.140625, -29108.36328125, 47966.68359375, 3435.440673828125, 129.08131408691406, 25710.583984375, 34015.734375, 0.0, 0.0, 0.0, 193.0, 0.0, 1.0, 1.0, 0.0, 0.0, 1.0, 1.0, 256.0, 1.0, 1.606468021333009E9, 2020-11-27 14:52:01.333
221.0, -28969.89453125, 15803.5546875, -29107.759765625, 48029.828125, 3407.7021484375, 109.47884368896484, 25716.171875, 33978.40625, 0.0, 0.0, 0.0, 193.0, 0.0, 1.0, 1.0, 0.0, 0.0, 1.0, 1.0, 256.0, 1.0, 1.606468021333013E9, 2020-11-27 14:52:01.333
222.0, -29100.78515625, 15724.65234375, -29201.859375, 47926.07421875, 3342.7255859375, 62.38371658325195, 25640.982421875, 33920.89453125, 0.0, 0.0, 0.0, 193.0, 0.0, 1.0, 1.0, 0.0, 0.0, 1.0, 1.0, 256.0, 1.0, 1.606468021333017E9, 2020-11-27 14:52:01.333
223.0, -29176.4453125, 15614.4365234375, -29308.076171875, 47822.76171875, 3270.5517578125, 3.308058023452759, 25558.48046875, 33877.64453125, 0.0, 0.0, 0.0, 193.0, 0.0, 1.0, 1.0, 0.0, 0.0, 1.0, 1.0, 256.0, 1.0, 1.606468021333021E9, 2020-11-27 14:52:01.333
224.0, -29183.330078125, 15586.18359375, -29332.953125, 47804.25390625, 3299.296142578125, 38.422645568847656, 25547.259765625, 33908.7578125, 0.0, 0.0, 0.0, 193.0, 0.0, 1.0, 1.0, 0.0, 0.0, 1.0, 1.0, 256.0, 1.0, 1.606468021333025E9, 2020-11-27 14:52:01.333
225.0, -28987.41796875, 15786.65625, -29156.6640625, 47915.56640625, 3420.129638671875, 152.68475341796875, 25693.060546875, 34009.609375, 0.0, 0.0, 0.0, 193.0, 0.0, 1.0, 1.0, 0.0, 0.0, 1.0, 1.0, 256.0, 1.0, 1.606468021333029E9, 2020-11-27 14:52:01.333
226.0, -29034.712890625, 15808.6953125, -29118.17578125, 47931.81640625, 3376.856689453125, 109.38943481445312, 25708.4609375, 33981.734375, 0.0, 0.0, 0.0, 193.0, 0.0, 1.0, 1.0, 0.0, 0.0, 1.0, 1.0, 256.0, 1.0, 1.606468021392841E9, 2020-11-27 14:52:01.392
227.0, -29132.345703125, 15714.3486328125, -29097.1640625, 47760.15625, 3326.22998046875, 69.715087890625, 25688.8359375, 33948.43359375, 0.0, 0.0, 0.0, 193.0, 0.0, 1.0, 1.0, 0.0, 0.0, 1.0, 1.0, 256.0, 1.0, 1.606468021392902E9, 2020-11-27 14:52:01.392
228.0, -29181.318359375, 15622.7734375, -29229.44140625, 47625.88671875, 3262.88525390625, -17.121435165405273, 25584.1640625, 33901.08984375, 0.0, 0.0, 0.0, 193.0, 0.0, 1.0, 1.0, 0.0, 0.0, 1.0, 1.0, 256.0, 1.0, 1.606468021392906E9, 2020-11-27 14:52:01.392
229.0, -29217.171875, 15589.044921875, -29327.365234375, 47896.34375, 3283.3369140625, 4.85032844543457, 25547.841796875, 33914.859375, 0.0, 0.0, 0.0, 193.0, 0.0, 1.0, 1.0, 0.0, 0.0, 1.0, 1.0, 256.0, 1.0, 1.60646802139291E9, 2020-11-27 14:52:01.392
230.0, -29106.931640625, 15784.1533203125, -29174.904296875, 48031.19140625, 3397.375732421875, 120.78882598876953, 25689.23828125, 34011.6875, 0.0, 0.0, 0.0, 193.0, 0.0, 1.0, 1.0, 0.0, 0.0, 1.0, 1.0, 256.0, 1.0, 1.606468021392914E9, 2020-11-27 14:52:01.392
231.0, -29087.8671875, 15778.0068359375, -29211.583984375, 47981.05859375, 3373.682861328125, 85.69658660888672, 25673.7265625, 33970.8046875, 0.0, 0.0, 0.0, 193.0, 0.0, 1.0, 1.0, 0.0, 0.0, 1.0, 1.0, 256.0, 1.0, 1.606468021392918E9, 2020-11-27 14:52:01.392
232.0, -29215.875, 15638.12890625, -29287.333984375, 47911.609375, 3310.13671875, 60.975555419921875, 25633.11328125, 33928.47265625, 0.0, 0.0, 0.0, 193.0, 0.0, 1.0, 1.0, 0.0, 0.0, 1.0, 1.0, 256.0, 1.0, 1.606468021392922E9, 2020-11-27 14:52:01.392
233.0, -29353.6953125, 15508.35546875, -29385.48046875, 47770.4140625, 3253.65380859375, 33.61702346801758, 25564.515625, 33890.02734375, 0.0, 0.0, 0.0, 193.0, 0.0, 1.0, 1.0, 0.0, 0.0, 1.0, 1.0, 256.0, 1.0, 1.606468021392972E9, 2020-11-27 14:52:01.392
234.0, -29336.8203125, 15525.2529296875, -29395.11328125, 47657.0703125, 3285.594482421875, 16.719104766845703, 25549.607421875, 33919.15234375, 0.0, 0.0, 0.0, 193.0, 0.0, 1.0, 1.0, 0.0, 0.0, 1.0, 1.0, 256.0, 1.0, 1.606468021392976E9, 2020-11-27 14:52:01.392
235.0, -29093.677734375, 15748.3232421875, -29201.7265625, 47923.94921875, 3411.054931640625, 84.69075775146484, 25682.35546875, 34017.41015625, 0.0, 0.0, 0.0, 193.0, 0.0, 1.0, 1.0, 0.0, 0.0, 1.0, 1.0, 256.0, 1.0, 1.60646802139298E9, 2020-11-27 14:52:01.392
236.0, -29087.8671875, 15741.86328125, -29203.06640625, 47944.7578125, 3377.460205078125, 72.41964721679688, 25696.01171875, 33981.6015625, 0.0, 0.0, 0.0, 193.0, 0.0, 1.0, 1.0, 0.0, 0.0, 1.0, 1.0, 256.0, 1.0, 1.606468021392984E9, 2020-11-27 14:52:01.392
237.0, -29171.751953125, 15639.984375, -29299.76171875, 47788.96484375, 3328.755859375, 39.76375198364258, 25635.953125, 33933.61328125, 0.0, 0.0, 0.0, 193.0, 0.0, 1.0, 1.0, 0.0, 0.0, 1.0, 1.0, 256.0, 1.0, 1.606468021392989E9, 2020-11-27 14:52:01.392
238.0, -29286.3046875, 15517.02734375, -29417.330078125, 47627.5859375, 3280.319580078125, -3.7103893756866455, 25547.41796875, 33889.1328125, 0.0, 0.0, 0.0, 193.0, 0.0, 1.0, 1.0, 0.0, 0.0, 1.0, 1.0, 256.0, 1.0, 1.606468021392993E9, 2020-11-27 14:52:01.392
239.0, -29309.328125, 15522.01171875, -29411.474609375, 47540.28125, 3292.83642578125, 19.021333694458008, 25548.423828125, 33925.72265625, 0.0, 0.0, 0.0, 193.0, 0.0, 1.0, 1.0, 0.0, 0.0, 1.0, 1.0, 256.0, 1.0, 1.606468021392997E9, 2020-11-27 14:52:01.392
240.0, -29093.25390625, 15749.4404296875, -29206.0625, 47722.828125, 3393.061767578125, 121.10174560546875, 25710.115234375, 34025.390625, 0.0, 0.0, 0.0, 193.0, 0.0, 1.0, 1.0, 0.0, 0.0, 1.0, 1.0, 256.0, 1.0, 1.606468021393001E9, 2020-11-27 14:52:01.393
241.0, -29090.392578125, 15727.87109375, -29222.46875, 47812.01171875, 3381.5283203125, 71.57028198242188, 25698.537109375, 33983.76953125, 0.0, 0.0, 0.0, 193.0, 0.0, 1.0, 1.0, 0.0, 0.0, 1.0, 1.0, 256.0, 1.0, 1.606468021451845E9, 2020-11-27 14:52:01.451
242.0, -29182.302734375, 15636.3857421875, -29295.9609375, 47833.515625, 3314.115478515625, -0.6034970879554749, 25631.81640625, 33931.6015625, 0.0, 0.0, 0.0, 193.0, 0.0, 1.0, 1.0, 0.0, 0.0, 1.0, 1.0, 256.0, 1.0, 1.606468021451862E9, 2020-11-27 14:52:01.451
243.0, -29273.765625, 15514.94921875, -29440.7109375, 47760.109375, 3265.008544921875, -50.000850677490234, 25538.900390625, 33887.6796875, 0.0, 0.0, 0.0, 193.0, 0.0, 1.0, 1.0, 0.0, 0.0, 1.0, 1.0, 256.0, 1.0, 1.606468021451866E9, 2020-11-27 14:52:01.451
244.0, -29281.23046875, 15504.5107421875, -29445.91796875, 47661.91796875, 3291.629638671875, -6.034970760345459, 25533.8046875, 33915.1484375, 0.0, 0.0, 0.0, 193.0, 0.0, 1.0, 1.0, 0.0, 0.0, 1.0, 1.0, 256.0, 1.0, 1.60646802145187E9, 2020-11-27 14:52:01.451
245.0, -29080.6015625, 15724.697265625, -29242.763671875, 47718.1328125, 3406.651611328125, 100.11345672607422, 25684.5234375, 34015.421875, 0.0, 0.0, 0.0, 193.0, 0.0, 1.0, 1.0, 0.0, 0.0, 1.0, 1.0, 256.0, 1.0, 1.606468021451874E9, 2020-11-27 14:52:01.451
246.0, -29090.927734375, 15718.1708984375, -29245.3125, 47793.75, 3384.63525390625, 87.08238983154297, 25693.865234375, 33978.25, 0.0, 0.0, 0.0, 193.0, 0.0, 1.0, 1.0, 0.0, 0.0, 1.0, 1.0, 256.0, 1.0, 1.606468021451878E9, 2020-11-27 14:52:01.451
247.0, -29193.322265625, 15624.6513671875, -29323.119140625, 47755.08203125, 3317.915283203125, 26.46446418762207, 25633.494140625, 33923.82421875, 0.0, 0.0, 0.0, 193.0, 0.0, 1.0, 1.0, 0.0, 0.0, 1.0, 1.0, 256.0, 1.0, 1.606468021451881E9, 2020-11-27 14:52:01.451
248.0, -29289.45703125, 15511.0595703125, -29440.2421875, 47683.0859375, 3262.102783203125, -36.18747329711914, 25539.884765625, 33876.63671875, 0.0, 0.0, 0.0, 193.0, 0.0, 1.0, 1.0, 0.0, 0.0, 1.0, 1.0, 256.0, 1.0, 1.606468021451885E9, 2020-11-27 14:52:01.451
249.0, -29280.181640625, 15515.3291015625, -29450.43359375, 47717.1953125, 3264.114501953125, -30.331315994262695, 25528.57421875, 33905.78515625, 0.0, 0.0, 0.0, 193.0, 0.0, 1.0, 1.0, 0.0, 0.0, 1.0, 1.0, 256.0, 1.0, 1.606468021451889E9, 2020-11-27 14:52:01.451
250.0, -29063.904296875, 15731.89453125, -29245.826171875, 47797.73046875, 3386.937255859375, 79.14752197265625, 25670.93359375, 34001.60546875, 0.0, 0.0, 0.0, 193.0, 0.0, 1.0, 1.0, 0.0, 0.0, 1.0, 1.0, 256.0, 1.0, 1.606468021451893E9, 2020-11-27 14:52:01.451
251.0, -29062.294921875, 15727.044921875, -29257.248046875, 47800.5, 3375.470947265625, 66.29527282714844, 25669.435546875, 33967.23046875, 0.0, 0.0, 0.0, 193.0, 0.0, 1.0, 1.0, 0.0, 0.0, 1.0, 1.0, 256.0, 1.0, 1.606468021451896E9, 2020-11-27 14:52:01.451
252.0, -29161.783203125, 15617.3642578125, -29344.53125, 47666.2109375, 3322.899658203125, 28.364362716674805, 25615.857421875, 33919.10546875, 0.0, 0.0, 0.0, 193.0, 0.0, 1.0, 1.0, 0.0, 0.0, 1.0, 1.0, 256.0, 1.0, 1.606468021451901E9, 2020-11-27 14:52:01.451
253.0, -29274.1015625, 15516.6474609375, -29450.1875, 47706.1328125, 3250.837646484375, -38.26618576049805, 25527.859375, 33876.8828125, 0.0, 0.0, 0.0, 193.0, 0.0, 1.0, 1.0, 0.0, 0.0, 1.0, 1.0, 256.0, 1.0, 1.606468021451905E9, 2020-11-27 14:52:01.451
254.0, -29276.0, 15520.8271484375, -29453.541015625, 47764.0234375, 3257.945556640625, -41.171913146972656, 25513.509765625, 33903.55078125, 0.0, 0.0, 0.0, 193.0, 0.0, 1.0, 1.0, 0.0, 0.0, 1.0, 1.0, 256.0, 1.0, 1.606468021451909E9, 2020-11-27 14:52:01.451
255.0, -29050.001953125, 15748.435546875, -29233.130859375, 47891.16015625, 3381.70703125, 85.5624771118164, 25673.123046875, 34004.578125, 0.0, 0.0, 0.0, 193.0, 0.0, 1.0, 1.0, 0.0, 0.0, 1.0, 1.0, 256.0, 1.0, 1.606468021451913E9, 2020-11-27 14:52:01.451
0.0, -29047.87890625, 15735.4482421875, -29242.5859375, 47846.9921875, 3370.575927734375, 77.98523712158203, 25679.650390625, 33970.87109375, 0.0, 0.0, 0.0, 193.0, 0.0, 1.0, 1.0, 0.0, 0.0, 1.0, 1.0, 256.0, 1.0, 1.60646802151185E9, 2020-11-27 14:52:01.511
1.0, -29167.55078125, 15632.7421875, -29336.26171875, 47732.015625, 3309.801513671875, 23.290517807006836, 25618.541015625, 33916.06640625, 0.0, 0.0, 0.0, 193.0, 0.0, 1.0, 1.0, 0.0, 0.0, 1.0, 1.0, 256.0, 1.0, 1.606468021511868E9, 2020-11-27 14:52:01.511
2.0, -29277.69921875, 15519.955078125, -29447.908203125, 47718.91796875, 3246.054443359375, -45.06111526489258, 25533.224609375, 33877.6875, 0.0, 0.0, 0.0, 193.0, 0.0, 1.0, 1.0, 0.0, 0.0, 1.0, 1.0, 256.0, 1.0, 1.606468021511873E9, 2020-11-27 14:52:01.511
3.0, -29267.865234375, 15525.7001953125, -29444.3984375, 47659.37109375, 3272.093994140625, -10.997057914733887, 25519.96875, 33912.48828125, 0.0, 0.0, 0.0, 193.0, 0.0, 1.0, 1.0, 0.0, 0.0, 1.0, 1.0, 256.0, 1.0, 1.606468021511876E9, 2020-11-27 14:52:01.511
4.0, -29048.818359375, 15753.5986328125, -29212.923828125, 47708.94921875, 3398.98486328125, 127.13671875, 25702.404296875, 34024.00390625, 0.0, 0.0, 0.0, 193.0, 0.0, 1.0, 1.0, 0.0, 0.0, 1.0, 1.0, 256.0, 1.0, 1.60646802151188E9, 2020-11-27 14:52:01.511
5.0, -29062.1171875, 15722.7978515625, -29241.84765625, 47803.4296875, 3368.20654296875, 94.61492919921875, 25687.62890625, 33977.265625, 0.0, 0.0, 0.0, 193.0, 0.0, 1.0, 1.0, 0.0, 0.0, 1.0, 1.0, 256.0, 1.0, 1.606468021511884E9, 2020-11-27 14:52:01.511
6.0, -29158.67578125, 15620.5830078125, -29354.6796875, 47774.50390625, 3311.120361328125, 11.913479804992676, 25597.015625, 33914.0546875, 0.0, 0.0, 0.0, 193.0, 0.0, 1.0, 1.0, 0.0, 0.0, 1.0, 1.0, 256.0, 1.0, 1.606468021511888E9, 2020-11-27 14:52:01.511
7.0, -29247.859375, 15506.142578125, -29462.4140625, 47629.1953125, 3260.3818359375, -15.10977840423584, 25503.40625, 33867.85546875, 0.0, 0.0, 0.0, 193.0, 0.0, 1.0, 1.0, 0.0, 0.0, 1.0, 1.0, 256.0, 1.0, 1.606468021511891E9, 2020-11-27 14:52:01.511
8.0, -29256.935546875, 15524.828125, -29434.474609375, 47654.65625, 3262.929931640625, -9.097159385681152, 25520.751953125, 33902.65625, 0.0, 0.0, 0.0, 193.0, 0.0, 1.0, 1.0, 0.0, 0.0, 1.0, 1.0, 256.0, 1.0, 1.606468021511895E9, 2020-11-27 14:52:01.511
9.0, -29069.716796875, 15774.3857421875, -29201.48046875, 47967.15625, 3371.60400390625, 76.13003540039062, 25675.068359375, 34005.44921875, 0.0, 0.0, 0.0, 193.0, 0.0, 1.0, 1.0, 0.0, 0.0, 1.0, 1.0, 256.0, 1.0, 1.606468021511899E9, 2020-11-27 14:52:01.511
10.0, -29074.947265625, 15733.5263671875, -29248.060546875, 47981.953125, 3362.73046875, 61.51199722290039, 25663.646484375, 33960.7265625, 0.0, 0.0, 0.0, 193.0, 0.0, 1.0, 1.0, 0.0, 0.0, 1.0, 1.0, 256.0, 1.0, 1.606468021511903E9, 2020-11-27 14:52:01.511
11.0, -29155.63671875, 15624.181640625, -29362.904296875, 47897.171875, 3308.572265625, 8.873641967773438, 25595.47265625, 33912.82421875, 0.0, 0.0, 0.0, 193.0, 0.0, 1.0, 1.0, 0.0, 0.0, 1.0, 1.0, 256.0, 1.0, 1.606468021511908E9, 2020-11-27 14:52:01.511
12.0, -29270.099609375, 15517.0498046875, -29455.708984375, 47805.53125, 3245.69677734375, -26.978553771972656, 25528.060546875, 33876.05859375, 0.0, 0.0, 0.0, 193.0, 0.0, 1.0, 1.0, 0.0, 0.0, 1.0, 1.0, 256.0, 1.0, 1.606468021511912E9, 2020-11-27 14:52:01.511
13.0, -29269.451171875, 15511.73046875, -29446.947265625, 47725.12890625, 3269.434326171875, -0.5364418625831604, 25532.91015625, 33910.92578125, 0.0, 0.0, 0.0, 193.0, 0.0, 1.0, 1.0, 0.0, 0.0, 1.0, 1.0, 256.0, 1.0, 1.606468021511916E9, 2020-11-27 14:52:01.511
14.0, -29044.951171875, 15739.29296875, -29239.298828125, 47935.50390625, 3395.743896484375, 116.87726593017578, 25668.384765625, 34005.921875, 0.0, 0.0, 0.0, 193.0, 0.0, 1.0, 1.0, 0.0, 0.0, 1.0, 1.0, 256.0, 1.0, 1.60646802151192E9, 2020-11-27 14:52:01.511
15.0, -29058.00390625, 15733.1015625, -29239.0078125, 47887.78515625, 3362.953857421875, 92.71503448486328, 25669.97265625, 33970.8046875, 0.0, 0.0, 0.0, 193.0, 0.0, 1.0, 1.0, 0.0, 0.0, 1.0, 1.0, 256.0, 1.0, 1.606468021571908E9, 2020-11-27 14:52:01.571
16.0, -29146.65234375, 15640.6103515625, -29325.64453125, 47863.91015625, 3312.707275390625, 23.17875862121582, 25602.984375, 33920.984375, 0.0, 0.0, 0.0, 193.0, 0.0, 1.0, 1.0, 0.0, 0.0, 1.0, 1.0, 256.0, 1.0, 1.606468021571929E9, 2020-11-27 14:52:01.571
17.0, -29261.16015625, 15539.669921875, -29414.26953125, 47831.58984375, 3259.443115234375, -10.102988243103027, 25523.322265625, 33882.73828125, 0.0, 0.0, 0.0, 193.0, 0.0, 1.0, 1.0, 0.0, 0.0, 1.0, 1.0, 256.0, 1.0, 1.606468021571933E9, 2020-11-27 14:52:01.571
18.0, -29275.353515625, 15525.7666015625, -29430.8984375, 47706.51171875, 3266.238037109375, 32.946468353271484, 25529.55859375, 33912.69140625, 0.0, 0.0, 0.0, 193.0, 0.0, 1.0, 1.0, 0.0, 0.0, 1.0, 1.0, 256.0, 1.0, 1.606468021571937E9, 2020-11-27 14:52:01.571
19.0, -29043.564453125, 15743.763671875, -29237.890625, 47941.046875, 3391.18408203125, 107.69070434570312, 25665.748046875, 34009.9453125, 0.0, 0.0, 0.0, 193.0, 0.0, 1.0, 1.0, 0.0, 0.0, 1.0, 1.0, 256.0, 1.0, 1.606468021571941E9, 2020-11-27 14:52:01.571
20.0, -29037.3515625, 15743.361328125, -29237.689453125, 48047.59765625, 3374.353271484375, 71.74909973144531, 25663.154296875, 33970.828125, 0.0, 0.0, 0.0, 193.0, 0.0, 1.0, 1.0, 0.0, 0.0, 1.0, 1.0, 256.0, 1.0, 1.606468021571945E9, 2020-11-27 14:52:01.571
21.0, -29132.94921875, 15652.2783203125, -29313.5078125, 47941.40625, 3314.785888671875, 23.558738708496094, 25603.140625, 33922.5703125, 0.0, 0.0, 0.0, 193.0, 0.0, 1.0, 1.0, 0.0, 0.0, 1.0, 1.0, 256.0, 1.0, 1.606468021571949E9, 2020-11-27 14:52:01.571
22.0, -29243.43359375, 15530.8408203125, -29431.345703125, 47788.921875, 3267.511962890625, -14.99802017211914, 25531.345703125, 33882.76171875, 0.0, 0.0, 0.0, 193.0, 0.0, 1.0, 1.0, 0.0, 0.0, 1.0, 1.0, 256.0, 1.0, 1.606468021571953E9, 2020-11-27 14:52:01.571
23.0, -29260.9140625, 15521.140625, -29436.75390625, 47712.5, 3283.24755859375, 16.182662963867188, 25522.40625, 33910.3671875, 0.0, 0.0, 0.0, 193.0, 0.0, 1.0, 1.0, 0.0, 0.0, 1.0, 1.0, 256.0, 1.0, 1.606468021571956E9, 2020-11-27 14:52:01.571
24.0, -29049.130859375, 15755.654296875, -29211.94140625, 47974.10546875, 3386.60205078125, 108.0259780883789, 25669.435546875, 34009.83203125, 0.0, 0.0, 0.0, 193.0, 0.0, 1.0, 1.0, 0.0, 0.0, 1.0, 1.0, 256.0, 1.0, 1.606468021571994E9, 2020-11-27 14:52:01.571
25.0, -29050.5390625, 15741.6845703125, -29233.0859375, 48115.7734375, 3371.671142578125, 82.27677154541016, 25670.6875, 33973.17578125, 0.0, 0.0, 0.0, 193.0, 0.0, 1.0, 1.0, 0.0, 0.0, 1.0, 1.0, 256.0, 1.0, 1.606468021571998E9, 2020-11-27 14:52:01.571
26.0, -29150.205078125, 15640.6552734375, -29332.841796875, 48044.9375, 3328.24169921875, 34.84636688232422, 25603.318359375, 33923.17578125, 0.0, 0.0, 0.0, 193.0, 0.0, 1.0, 1.0, 0.0, 0.0, 1.0, 1.0, 256.0, 1.0, 1.606468021572002E9, 2020-11-27 14:52:01.572
27.0, -29261.71875, 15533.3447265625, -29430.16015625, 47943.68359375, 3266.796630859375, 1.452863335609436, 25540.287109375, 33894.7421875, 0.0, 0.0, 0.0, 193.0, 0.0, 1.0, 1.0, 0.0, 0.0, 1.0, 1.0, 256.0, 1.0, 1.606468021572007E9, 2020-11-27 14:52:01.572
28.0, -29250.140625, 15531.7353515625, -29427.166015625, 47899.7421875, 3284.320556640625, 19.24485206604004, 25529.69140625, 33921.6328125, 0.0, 0.0, 0.0, 193.0, 0.0, 1.0, 1.0, 0.0, 0.0, 1.0, 1.0, 256.0, 1.0, 1.606468021572011E9, 2020-11-27 14:52:01.572
29.0, -29027.875, 15756.951171875, -29201.837890625, 47892.296875, 3410.3173828125, 130.22125244140625, 25687.294921875, 34020.3828125, 0.0, 0.0, 0.0, 193.0, 0.0, 1.0, 1.0, 0.0, 0.0, 1.0, 1.0, 256.0, 1.0, 1.606468021572015E9, 2020-11-27 14:52:01.572
30.0, -29031.47265625, 15748.837890625, -29217.908203125, 47782.57421875, 3397.0849609375, 126.84614562988281, 25689.5078125, 33979.546875, 0.0, 0.0, 0.0, 193.0, 0.0, 1.0, 1.0, 0.0, 0.0, 1.0, 1.0, 256.0, 1.0, 1.606468021632978E9, 2020-11-27 14:52:01.632
31.0, -29125.26171875, 15628.294921875, -29344.576171875, 47865.5, 3331.61669921875, 74.52071380615234, 25590.82421875, 33918.6796875, 0.0, 0.0, 0.0, 193.0, 0.0, 1.0, 1.0, 0.0, 0.0, 1.0, 1.0, 256.0, 1.0, 1.606468021633004E9, 2020-11-27 14:52:01.633
32.0, -29251.078125, 15514.76953125, -29449.607421875, 47989.5078125, 3249.7646484375, -24.653972625732422, 25506.087890625, 33871.36328125, 0.0, 0.0, 0.0, 193.0, 0.0, 1.0, 1.0, 0.0, 0.0, 1.0, 1.0, 256.0, 1.0, 1.60646802163301E9, 2020-11-27 14:52:01.633
33.0, -29267.060546875, 15539.3564453125, -29404.9921875, 47889.83984375, 3248.46826171875, -4.872680187225342, 25520.572265625, 33906.41015625, 0.0, 0.0, 0.0, 193.0, 0.0, 1.0, 1.0, 0.0, 0.0, 1.0, 1.0, 256.0, 1.0, 1.606468021633015E9, 2020-11-27 14:52:01.633
34.0, -29042.984375, 15755.3193359375, -29206.822265625, 47963.84765625, 3392.055908203125, 112.29515838623047, 25673.861328125, 34010.94921875, 0.0, 0.0, 0.0, 193.0, 0.0, 1.0, 1.0, 0.0, 0.0, 1.0, 1.0, 256.0, 1.0, 1.60646802163302E9, 2020-11-27 14:52:01.633
35.0, -29038.8046875, 15733.6826171875, -29266.748046875, 48232.06640625, 3395.364013671875, 76.2864990234375, 25650.548828125, 33968.59375, 0.0, 0.0, 0.0, 193.0, 0.0, 1.0, 1.0, 0.0, 0.0, 1.0, 1.0, 256.0, 1.0, 1.606468021633025E9, 2020-11-27 14:52:01.633
36.0, -29153.625, 15631.37890625, -29340.171875, 48168.03125, 3321.089111328125, 14.930964469909668, 25597.8203125, 33924.71484375, 0.0, 0.0, 0.0, 193.0, 0.0, 1.0, 1.0, 0.0, 0.0, 1.0, 1.0, 256.0, 1.0, 1.60646802163303E9, 2020-11-27 14:52:01.633
37.0, -29268.15625, 15516.3349609375, -29431.30078125, 47954.97265625, 3246.546142578125, -13.522805213928223, 25520.572265625, 33882.046875, 0.0, 0.0, 0.0, 193.0, 0.0, 1.0, 1.0, 0.0, 0.0, 1.0, 1.0, 256.0, 1.0, 1.606468021633034E9, 2020-11-27 14:52:01.633
38.0, -29271.53125, 15518.591796875, -29424.259765625, 47800.87890625, 3256.514892578125, 39.98727035522461, 25529.78125, 33912.82421875, 0.0, 0.0, 0.0, 193.0, 0.0, 1.0, 1.0, 0.0, 0.0, 1.0, 1.0, 256.0, 1.0, 1.606468021633039E9, 2020-11-27 14:52:01.633
39.0, -29048.259765625, 15733.4375, -29238.248046875, 47940.3984375, 3382.958740234375, 120.67706298828125, 25669.48046875, 34012.515625, 0.0, 0.0, 0.0, 193.0, 0.0, 1.0, 1.0, 0.0, 0.0, 1.0, 1.0, 256.0, 1.0, 1.606468021633044E9, 2020-11-27 14:52:01.633
40.0, -29032.2109375, 15722.08203125, -29253.76171875, 47986.265625, 3364.63037109375, 93.65380859375, 25658.05859375, 33973.28515625, 0.0, 0.0, 0.0, 193.0, 0.0, 1.0, 1.0, 0.0, 0.0, 1.0, 1.0, 256.0, 1.0, 1.606468021633049E9, 2020-11-27 14:52:01.633
41.0, -29140.548828125, 15632.876953125, -29315.5859375, 47963.1328125, 3307.7451171875, 59.76856231689453, 25600.7265625, 33930.328125, 0.0, 0.0, 0.0, 193.0, 0.0, 1.0, 1.0, 0.0, 0.0, 1.0, 1.0, 256.0, 1.0, 1.606468021633054E9, 2020-11-27 14:52:01.633
42.0, -29276.224609375, 15525.185546875, -29413.396484375, 47907.20703125, 3251.217529296875, 16.137958526611328, 25540.421875, 33896.3984375, 0.0, 0.0, 0.0, 193.0, 0.0, 1.0, 1.0, 0.0, 0.0, 1.0, 1.0, 256.0, 1.0, 1.60646802163306E9, 2020-11-27 14:52:01.633
43.0, -29285.74609375, 15525.9677734375, -29435.212890625, 47976.69921875, 3255.307861328125, 8.426607131958008, 25527.2109375, 33922.48046875, 0.0, 0.0, 0.0, 193.0, 0.0, 1.0, 1.0, 0.0, 0.0, 1.0, 1.0, 256.0, 1.0, 1.606468021633064E9, 2020-11-27 14:52:01.633
44.0, -29047.09765625, 15743.4951171875, -29233.48828125, 48028.109375, 3382.4892578125, 115.51380920410156, 25667.400390625, 34019.93359375, 0.0, 0.0, 0.0, 193.0, 0.0, 1.0, 1.0, 0.0, 0.0, 1.0, 1.0, 256.0, 1.0, 1.606468021633069E9, 2020-11-27 14:52:01.633
45.0, -29030.9140625, 15723.2001953125, -29248.75390625, 48096.19140625, 3377.63916015625, 82.83556365966797, 25662.21484375, 33978.80859375, 0.0, 0.0, 0.0, 193.0, 0.0, 1.0, 1.0, 0.0, 0.0, 1.0, 1.0, 256.0, 1.0, 1.60646802169299E9, 2020-11-27 14:52:01.692
46.0, -29117.4375, 15625.34375, -29328.908203125, 48097.30859375, 3315.613037109375, 43.6306037902832, 25598.892578125, 33927.80078125, 0.0, 0.0, 0.0, 193.0, 0.0, 1.0, 1.0, 0.0, 0.0, 1.0, 1.0, 256.0, 1.0, 1.606468021693008E9, 2020-11-27 14:52:01.693
47.0, -29266.3671875, 15511.484375, -29436.375, 47989.44140625, 3241.4052734375, 12.494625091552734, 25535.8828125, 33890.02734375, 0.0, 0.0, 0.0, 193.0, 0.0, 1.0, 1.0, 0.0, 0.0, 1.0, 1.0, 256.0, 1.0, 1.606468021693045E9, 2020-11-27 14:52:01.693
48.0, -29284.5625, 15504.287109375, -29445.560546875, 47974.46484375, 3252.9833984375, 21.524728775024414, 25523.09765625, 33917.96484375, 0.0, 0.0, 0.0, 193.0, 0.0, 1.0, 1.0, 0.0, 0.0, 1.0, 1.0, 256.0, 1.0, 1.60646802169305E9, 2020-11-27 14:52:01.693
49.0, -29056.060546875, 15734.5322265625, -29217.283203125, 48073.59375, 3383.852783203125, 128.72369384765625, 25690.736328125, 34029.03125, 0.0, 0.0, 0.0, 193.0, 0.0, 1.0, 1.0, 0.0, 0.0, 1.0, 1.0, 256.0, 1.0, 1.606468021693055E9, 2020-11-27 14:52:01.693
50.0, -29048.794921875, 15720.00390625, -29225.732421875, 48014.8515625, 3381.684814453125, 146.26980590820312, 25698.291015625, 34001.40625, 0.0, 0.0, 0.0, 193.0, 0.0, 1.0, 1.0, 0.0, 0.0, 1.0, 1.0, 256.0, 1.0, 1.606468021693059E9, 2020-11-27 14:52:01.693
51.0, -29135.072265625, 15621.25390625, -29311.80859375, 47905.5546875, 3330.5439453125, 108.24949645996094, 25636.2421875, 33954.51171875, 0.0, 0.0, 0.0, 193.0, 0.0, 1.0, 1.0, 0.0, 0.0, 1.0, 1.0, 256.0, 1.0, 1.606468021693064E9, 2020-11-27 14:52:01.693
52.0, -29254.923828125, 15511.9541015625, -29422.2265625, 47860.53515625, 3270.127197265625, 51.05138397216797, 25560.26953125, 33906.54296875, 0.0, 0.0, 0.0, 193.0, 0.0, 1.0, 1.0, 0.0, 0.0, 1.0, 1.0, 256.0, 1.0, 1.606468021693069E9, 2020-11-27 14:52:01.693
53.0, -29273.69921875, 15506.767578125, -29454.033203125, 48022.69921875, 3257.05126953125, 6.0126190185546875, 25524.23828125, 33916.9375, 0.0, 0.0, 0.0, 193.0, 0.0, 1.0, 1.0, 0.0, 0.0, 1.0, 1.0, 256.0, 1.0, 1.606468021693073E9, 2020-11-27 14:52:01.693
54.0, -29058.31640625, 15732.5205078125, -29236.080078125, 48118.96875, 3366.99951171875, 119.15714263916016, 25670.015625, 34013.0078125, 0.0, 0.0, 0.0, 193.0, 0.0, 1.0, 1.0, 0.0, 0.0, 1.0, 1.0, 256.0, 1.0, 1.606468021693078E9, 2020-11-27 14:52:01.693
55.0, -29053.33203125, 15712.8515625, -29232.080078125, 48032.625, 3362.529296875, 132.7693634033203, 25677.83984375, 33978.49609375, 0.0, 0.0, 0.0, 193.0, 0.0, 1.0, 1.0, 0.0, 0.0, 1.0, 1.0, 256.0, 1.0, 1.606468021693082E9, 2020-11-27 14:52:01.693
56.0, -29143.96875, 15604.69140625, -29326.42578125, 47859.95703125, 3313.601318359375, 93.8326187133789, 25622.294921875, 33925.9921875, 0.0, 0.0, 0.0, 193.0, 0.0, 1.0, 1.0, 0.0, 0.0, 1.0, 1.0, 256.0, 1.0, 1.606468021693086E9, 2020-11-27 14:52:01.693
57.0, -29228.279296875, 15514.2109375, -29448.892578125, 47936.64453125, 3260.135986328125, 17.166139602661133, 25526.80859375, 33883.27734375, 0.0, 0.0, 0.0, 193.0, 0.0, 1.0, 1.0, 0.0, 0.0, 1.0, 1.0, 256.0, 1.0, 1.606468021693092E9, 2020-11-27 14:52:01.693
58.0, -29241.35546875, 15528.94140625, -29431.009765625, 48069.234375, 3277.011474609375, 27.9620304107666, 25527.5234375, 33915.39453125, 0.0, 0.0, 0.0, 193.0, 0.0, 1.0, 1.0, 0.0, 0.0, 1.0, 1.0, 256.0, 1.0, 1.606468021693096E9, 2020-11-27 14:52:01.693
59.0, -29039.251953125, 15744.1435546875, -29213.1484375, 48179.65234375, 3408.97607421875, 160.30670166015625, 25703.298828125, 34023.2421875, 0.0, 0.0, 0.0, 193.0, 0.0, 1.0, 1.0, 0.0, 0.0, 1.0, 1.0, 256.0, 1.0, 1.606468021693101E9, 2020-11-27 14:52:01.693
60.0, -29038.3125, 15739.830078125, -29198.91015625, 48109.40234375, 3408.439697265625, 178.38926696777344, 25725.8515625, 33993.24609375, 0.0, 0.0, 0.0, 193.0, 0.0, 1.0, 1.0, 0.0, 0.0, 1.0, 1.0, 256.0, 1.0, 1.606468021752838E9, 2020-11-27 14:52:01.752
61.0, -29128.189453125, 15661.1513671875, -29265.853515625, 48022.96875, 3374.39794921875, 153.62353515625, 25694.513671875, 33959.29296875, 0.0, 0.0, 0.0, 193.0, 0.0, 1.0, 1.0, 0.0, 0.0, 1.0, 1.0, 256.0, 1.0, 1.606468021752902E9, 2020-11-27 14:52:01.752
62.0, -29198.798828125, 15539.78125, -29401.595703125, 47994.69140625, 3333.13671875, 81.20388793945312, 25588.07421875, 33923.64453125, 0.0, 0.0, 0.0, 193.0, 0.0, 1.0, 1.0, 0.0, 0.0, 1.0, 1.0, 256.0, 1.0, 1.606468021752906E9, 2020-11-27 14:52:01.752
63.0, -29203.71484375, 15538.9326171875, -29401.39453125, 47984.3203125, 3338.568115234375, 97.58771514892578, 25578.62109375, 33962.71484375, 0.0, 0.0, 0.0, 193.0, 0.0, 1.0, 1.0, 0.0, 0.0, 1.0, 1.0, 256.0, 1.0, 1.606468021752911E9, 2020-11-27 14:52:01.752
64.0, -29001.275390625, 15756.1240234375, -29163.28125, 48081.73046875, 3450.729248046875, 210.82164001464844, 25746.302734375, 34072.953125, 0.0, 0.0, 0.0, 193.0, 0.0, 1.0, 1.0, 0.0, 0.0, 1.0, 1.0, 256.0, 1.0, 1.606468021752915E9, 2020-11-27 14:52:01.752
65.0, -29043.140625, 15738.9580078125, -29186.59375, 48112.88671875, 3395.81103515625, 161.78192138671875, 25727.05859375, 34027.9140625, 0.0, 0.0, 0.0, 193.0, 0.0, 1.0, 1.0, 0.0, 0.0, 1.0, 1.0, 256.0, 1.0, 1.606468021752919E9, 2020-11-27 14:52:01.752
66.0, -29169.29296875, 15619.7109375, -29329.109375, 48129.2734375, 3307.879150390625, 81.5391616821289, 25643.10546875, 33959.25, 0.0, 0.0, 0.0, 193.0, 0.0, 1.0, 1.0, 0.0, 0.0, 1.0, 1.0, 256.0, 1.0, 1.606468021752924E9, 2020-11-27 14:52:01.752
67.0, -29290.23828125, 15510.7470703125, -29444.66796875, 48052.13671875, 3230.3857421875, 22.128225326538086, 25551.373046875, 33907.83984375, 0.0, 0.0, 0.0, 193.0, 0.0, 1.0, 1.0, 0.0, 0.0, 1.0, 1.0, 256.0, 1.0, 1.606468021752928E9, 2020-11-27 14:52:01.752
68.0, -29294.732421875, 15498.54296875, -29452.9140625, 48008.99609375, 3237.7841796875, 39.09320068359375, 25540.2421875, 33933.09765625, 0.0, 0.0, 0.0, 193.0, 0.0, 1.0, 1.0, 0.0, 0.0, 1.0, 1.0, 256.0, 1.0, 1.606468021752932E9, 2020-11-27 14:52:01.752
69.0, -29051.388671875, 15707.3525390625, -29253.42578125, 48126.58984375, 3360.00341796875, 140.65951538085938, 25677.326171875, 34031.89453125, 0.0, 0.0, 0.0, 193.0, 0.0, 1.0, 1.0, 0.0, 0.0, 1.0, 1.0, 256.0, 1.0, 1.606468021752936E9, 2020-11-27 14:52:01.752
70.0, -29053.69140625, 15704.4248046875, -29240.796875, 48000.99609375, 3352.80615234375, 139.83250427246094, 25683.740234375, 33997.44921875, 0.0, 0.0, 0.0, 193.0, 0.0, 1.0, 1.0, 0.0, 0.0, 1.0, 1.0, 256.0, 1.0, 1.606468021752968E9, 2020-11-27 14:52:01.752
71.0, -29166.0078125, 15625.880859375, -29297.591796875, 47966.7734375, 3306.158203125, 107.93656921386719, 25642.724609375, 33952.25390625, 0.0, 0.0, 0.0, 193.0, 0.0, 1.0, 1.0, 0.0, 0.0, 1.0, 1.0, 256.0, 1.0, 1.606468021752972E9, 2020-11-27 14:52:01.752
72.0, -29267.841796875, 15519.6650390625, -29421.287109375, 48041.51953125, 3243.26025390625, 14.483929634094238, 25568.96484375, 33908.2421875, 0.0, 0.0, 0.0, 193.0, 0.0, 1.0, 1.0, 0.0, 0.0, 1.0, 1.0, 256.0, 1.0, 1.606468021752977E9, 2020-11-27 14:52:01.752
73.0, -29276.380859375, 15508.9140625, -29437.044921875, 48040.4921875, 3237.448974609375, -14.618040084838867, 25519.96875, 33926.03515625, 0.0, 0.0, 0.0, 193.0, 0.0, 1.0, 1.0, 0.0, 0.0, 1.0, 1.0, 256.0, 1.0, 1.606468021752982E9, 2020-11-27 14:52:01.752
74.0, -29066.69921875, 15712.44921875, -29215.427734375, 48024.91015625, 3354.795654296875, 129.05897521972656, 25668.5859375, 34025.27734375, 0.0, 0.0, 0.0, 193.0, 0.0, 1.0, 1.0, 0.0, 0.0, 1.0, 1.0, 256.0, 1.0, 1.606468021752986E9, 2020-11-27 14:52:01.752
75.0, -29059.970703125, 15695.751953125, -29235.142578125, 48014.18359375, 3355.24267578125, 155.1881561279297, 25697.263671875, 33993.3359375, 0.0, 0.0, 0.0, 193.0, 0.0, 1.0, 1.0, 0.0, 0.0, 1.0, 1.0, 256.0, 1.0, 1.60646802175299E9, 2020-11-27 14:52:01.752
76.0, -29142.986328125, 15608.8486328125, -29353.0703125, 48091.20703125, 3299.1396484375, 55.029991149902344, 25605.28515625, 33933.5234375, 0.0, 0.0, 0.0, 193.0, 0.0, 1.0, 1.0, 0.0, 0.0, 1.0, 1.0, 256.0, 1.0, 1.606468021812901E9, 2020-11-27 14:52:01.812
77.0, -29265.40625, 15509.4501953125, -29413.7109375, 48039.73046875, 3221.31103515625, 8.538366317749023, 25534.7890625, 33898.609375, 0.0, 0.0, 0.0, 193.0, 0.0, 1.0, 1.0, 0.0, 0.0, 1.0, 1.0, 256.0, 1.0, 1.60646802181291E9, 2020-11-27 14:52:01.812
78.0, -29286.751953125, 15504.9130859375, -29432.171875, 47998.671875, 3231.436279296875, 30.91246223449707, 25535.392578125, 33928.42578125, 0.0, 0.0, 0.0, 193.0, 0.0, 1.0, 1.0, 0.0, 0.0, 1.0, 1.0, 256.0, 1.0, 1.606468021812915E9, 2020-11-27 14:52:01.812
79.0, -29065.40234375, 15712.248046875, -29252.263671875, 48194.0703125, 3368.653564453125, 129.23777770996094, 25688.791015625, 34030.375, 0.0, 0.0, 0.0, 193.0, 0.0, 1.0, 1.0, 0.0, 0.0, 1.0, 1.0, 256.0, 1.0, 1.606468021812919E9, 2020-11-27 14:52:01.812
80.0, -29073.0703125, 15702.4580078125, -29259.326171875, 48213.47265625, 3352.180419921875, 124.25334167480469, 25684.9921875, 33988.28515625, 0.0, 0.0, 0.0, 193.0, 0.0, 1.0, 1.0, 0.0, 0.0, 1.0, 1.0, 256.0, 1.0, 1.606468021812924E9, 2020-11-27 14:52:01.812
81.0, -29166.767578125, 15607.10546875, -29351.169921875, 48179.875, 3297.798583984375, 61.17672348022461, 25619.5234375, 33936.96484375, 0.0, 0.0, 0.0, 193.0, 0.0, 1.0, 1.0, 0.0, 0.0, 1.0, 1.0, 256.0, 1.0, 1.606468021812928E9, 2020-11-27 14:52:01.812
82.0, -29280.494140625, 15485.421875, -29445.046875, 47986.2421875, 3229.424560546875, 25.12335968017578, 25541.091796875, 33892.39453125, 0.0, 0.0, 0.0, 193.0, 0.0, 1.0, 1.0, 0.0, 0.0, 1.0, 1.0, 256.0, 1.0, 1.606468021812932E9, 2020-11-27 14:52:01.812
83.0, -29293.390625, 15478.1796875, -29439.861328125, 47847.28125, 3238.231201171875, 56.95224380493164, 25534.20703125, 33919.91015625, 0.0, 0.0, 0.0, 193.0, 0.0, 1.0, 1.0, 0.0, 0.0, 1.0, 1.0, 256.0, 1.0, 1.606468021812937E9, 2020-11-27 14:52:01.812
84.0, -29076.890625, 15719.3330078125, -29217.88671875, 48120.5546875, 3361.858642578125, 140.9947967529297, 25700.212890625, 34028.09375, 0.0, 0.0, 0.0, 193.0, 0.0, 1.0, 1.0, 0.0, 0.0, 1.0, 1.0, 256.0, 1.0, 1.606468021812941E9, 2020-11-27 14:52:01.812
85.0, -29063.63671875, 15718.439453125, -29232.59375, 48356.58984375, 3347.374755859375, 80.1310043334961, 25680.38671875, 33989.0234375, 0.0, 0.0, 0.0, 193.0, 0.0, 1.0, 1.0, 0.0, 0.0, 1.0, 1.0, 256.0, 1.0, 1.606468021812945E9, 2020-11-27 14:52:01.812
86.0, -29151.390625, 15612.4921875, -29334.2265625, 48205.37890625, 3301.375, 44.0552864074707, 25615.412109375, 33938.1484375, 0.0, 0.0, 0.0, 193.0, 0.0, 1.0, 1.0, 0.0, 0.0, 1.0, 1.0, 256.0, 1.0, 1.60646802181295E9, 2020-11-27 14:52:01.812
87.0, -29256.0625, 15498.1181640625, -29443.86328125, 48010.875, 3235.392578125, 16.33912467956543, 25547.70703125, 33902.921875, 0.0, 0.0, 0.0, 193.0, 0.0, 1.0, 1.0, 0.0, 0.0, 1.0, 1.0, 256.0, 1.0, 1.606468021812955E9, 2020-11-27 14:52:01.812
88.0, -29278.2578125, 15491.0546875, -29444.64453125, 47920.6171875, 3238.611083984375, 33.81818771362305, 25536.107421875, 33926.68359375, 0.0, 0.0, 0.0, 193.0, 0.0, 1.0, 1.0, 0.0, 0.0, 1.0, 1.0, 256.0, 1.0, 1.606468021812959E9, 2020-11-27 14:52:01.812
89.0, -29072.66796875, 15724.8095703125, -29212.3203125, 47994.89453125, 3359.80224609375, 165.067626953125, 25693.798828125, 34028.16015625, 0.0, 0.0, 0.0, 193.0, 0.0, 1.0, 1.0, 0.0, 0.0, 1.0, 1.0, 256.0, 1.0, 1.606468021812964E9, 2020-11-27 14:52:01.812
90.0, -29050.78515625, 15711.1748046875, -29231.275390625, 47969.6796875, 3366.664306640625, 152.81887817382812, 25692.123046875, 33994.07421875, 0.0, 0.0, 0.0, 193.0, 0.0, 1.0, 1.0, 0.0, 0.0, 1.0, 1.0, 256.0, 1.0, 1.606468021812968E9, 2020-11-27 14:52:01.812
91.0, -29147.3671875, 15614.458984375, -29329.779296875, 48155.01953125, 3305.353515625, 57.913368225097656, 25616.283203125, 33938.12890625, 0.0, 0.0, 0.0, 193.0, 0.0, 1.0, 1.0, 0.0, 0.0, 1.0, 1.0, 256.0, 1.0, 1.606468021872837E9, 2020-11-27 14:52:01.872
92.0, -29276.0234375, 15510.7470703125, -29424.439453125, 48240.11328125, 3221.89208984375, -24.229290008544922, 25540.912109375, 33892.796875, 0.0, 0.0, 0.0, 193.0, 0.0, 1.0, 1.0, 0.0, 0.0, 1.0, 1.0, 256.0, 1.0, 1.606468021872896E9, 2020-11-27 14:52:01.872
93.0, -29289.03125, 15497.89453125, -29447.39453125, 48151.37890625, 3226.653076171875, -11.555851936340332, 25526.607421875, 33916.3359375, 0.0, 0.0, 0.0, 193.0, 0.0, 1.0, 1.0, 0.0, 0.0, 1.0, 1.0, 256.0, 1.0, 1.6064680218729E9, 2020-11-27 14:52:01.872
94.0, -29057.19921875, 15718.595703125, -29237.734375, 48155.578125, 3359.9140625, 120.27473449707031, 25680.41015625, 34020.89453125, 0.0, 0.0, 0.0, 193.0, 0.0, 1.0, 1.0, 0.0, 0.0, 1.0, 1.0, 256.0, 1.0, 1.606468021872937E9, 2020-11-27 14:52:01.872
95.0, -29063.056640625, 15719.2216796875, -29219.294921875, 48121.3828125, 3352.962646484375, 142.7382354736328, 25708.505859375, 33995.234375, 0.0, 0.0, 0.0, 193.0, 0.0, 1.0, 1.0, 0.0, 0.0, 1.0, 1.0, 256.0, 1.0, 1.606468021872941E9, 2020-11-27 14:52:01.872
96.0, -29163.482421875, 15623.2880859375, -29302.7109375, 48036.04296875, 3296.502197265625, 97.02891540527344, 25655.353515625, 33948.1171875, 0.0, 0.0, 0.0, 193.0, 0.0, 1.0, 1.0, 0.0, 0.0, 1.0, 1.0, 256.0, 1.0, 1.606468021872945E9, 2020-11-27 14:52:01.872
97.0, -29267.060546875, 15503.9296875, -29424.751953125, 47931.21484375, 3230.09521484375, 24.162235260009766, 25553.25, 33897.3359375, 0.0, 0.0, 0.0, 193.0, 0.0, 1.0, 1.0, 0.0, 0.0, 1.0, 1.0, 256.0, 1.0, 1.606468021872949E9, 2020-11-27 14:52:01.872
98.0, -29277.251953125, 15479.9462890625, -29456.8046875, 47804.30078125, 3235.50439453125, 22.06117057800293, 25523.1875, 33918.7265625, 0.0, 0.0, 0.0, 193.0, 0.0, 1.0, 1.0, 0.0, 0.0, 1.0, 1.0, 256.0, 1.0, 1.606468021872953E9, 2020-11-27 14:52:01.872
99.0, -29054.271484375, 15714.52734375, -29227.744140625, 48054.9765625, 3371.045166015625, 146.58273315429688, 25685.05859375, 34026.8203125, 0.0, 0.0, 0.0, 193.0, 0.0, 1.0, 1.0, 0.0, 0.0, 1.0, 1.0, 256.0, 1.0, 1.606468021872957E9, 2020-11-27 14:52:01.872
100.0, -29053.33203125, 15719.0205078125, -29213.416015625, 48120.30859375, 3365.367919921875, 143.5205535888672, 25699.654296875, 33991.703125, 0.0, 0.0, 0.0, 193.0, 0.0, 1.0, 1.0, 0.0, 0.0, 1.0, 1.0, 256.0, 1.0, 1.606468021872961E9, 2020-11-27 14:52:01.872
101.0, -29155.099609375, 15617.2978515625, -29320.8828125, 48105.4453125, 3301.7548828125, 70.54210662841797, 25629.58203125, 33935.82421875, 0.0, 0.0, 0.0, 193.0, 0.0, 1.0, 1.0, 0.0, 0.0, 1.0, 1.0, 256.0, 1.0, 1.606468021872965E9, 2020-11-27 14:52:01.872
102.0, -29267.8203125, 15505.4716796875, -29430.138671875, 48057.1875, 3233.69384765625, -5.252659797668457, 25548.9140625, 33893.984375, 0.0, 0.0, 0.0, 193.0, 0.0, 1.0, 1.0, 0.0, 0.0, 1.0, 1.0, 256.0, 1.0, 1.60646802187297E9, 2020-11-27 14:52:01.872
103.0, -29282.4375, 15502.119140625, -29443.125, 47908.16796875, 3238.141845703125, 2.034008741378784, 25531.927734375, 33915.28515625, 0.0, 0.0, 0.0, 193.0, 0.0, 1.0, 1.0, 0.0, 0.0, 1.0, 1.0, 256.0, 1.0, 1.606468021872974E9, 2020-11-27 14:52:01.872
104.0, -29058.697265625, 15717.03125, -29236.416015625, 47895.8515625, 3369.83837890625, 132.05410766601562, 25675.984375, 34024.29296875, 0.0, 0.0, 0.0, 193.0, 0.0, 1.0, 1.0, 0.0, 0.0, 1.0, 1.0, 256.0, 1.0, 1.606468021872978E9, 2020-11-27 14:52:01.872
105.0, -29053.04296875, 15708.783203125, -29229.84375, 47879.9609375, 3358.61767578125, 135.4739227294922, 25692.0546875, 33989.359375, 0.0, 0.0, 0.0, 193.0, 0.0, 1.0, 1.0, 0.0, 0.0, 1.0, 1.0, 256.0, 1.0, 1.606468021872983E9, 2020-11-27 14:52:01.872
106.0, -29148.439453125, 15614.056640625, -29313.91015625, 47821.51171875, 3309.108642578125, 87.06004333496094, 25634.6328125, 33939.42578125, 0.0, 0.0, 0.0, 193.0, 0.0, 1.0, 1.0, 0.0, 0.0, 1.0, 1.0, 256.0, 1.0, 1.606468021933865E9, 2020-11-27 14:52:01.933
107.0, -29274.994140625, 15503.3701171875, -29413.822265625, 47818.1796875, 3236.197265625, 29.034915924072266, 25550.591796875, 33887.12109375, 0.0, 0.0, 0.0, 193.0, 0.0, 1.0, 1.0, 0.0, 0.0, 1.0, 1.0, 256.0, 1.0, 1.606468021933886E9, 2020-11-27 14:52:01.933
108.0, -29279.689453125, 15491.94921875, -29443.259765625, 47833.8046875, 3252.5810546875, 19.334259033203125, 25522.583984375, 33909.8515625, 0.0, 0.0, 0.0, 193.0, 0.0, 1.0, 1.0, 0.0, 0.0, 1.0, 1.0, 256.0, 1.0, 1.60646802193389E9, 2020-11-27 14:52:01.933
109.0, -29056.39453125, 15714.8623046875, -29235.25390625, 47944.48828125, 3373.50390625, 132.59054565429688, 25679.716796875, 34019.0390625, 0.0, 0.0, 0.0, 193.0, 0.0, 1.0, 1.0, 0.0, 0.0, 1.0, 1.0, 256.0, 1.0, 1.606468021933894E9, 2020-11-27 14:52:01.933
110.0, -29056.3046875, 15723.1103515625, -29222.490234375, 48077.9765625, 3337.71875, 103.17565155029297, 25703.208984375, 33989.1796875, 0.0, 0.0, 0.0, 193.0, 0.0, 1.0, 1.0, 0.0, 0.0, 1.0, 1.0, 256.0, 1.0, 1.606468021933898E9, 2020-11-27 14:52:01.933
111.0, -29153.46875, 15615.8671875, -29319.9453125, 47997.30859375, 3263.66748046875, 43.6529541015625, 25624.28515625, 33926.125, 0.0, 0.0, 0.0, 193.0, 0.0, 1.0, 1.0, 0.0, 0.0, 1.0, 1.0, 256.0, 1.0, 1.606468021933902E9, 2020-11-27 14:52:01.933
112.0, -29273.162109375, 15493.982421875, -29434.921875, 47846.0546875, 3216.416015625, -8.404255867004395, 25528.240234375, 33880.59375, 0.0, 0.0, 0.0, 193.0, 0.0, 1.0, 1.0, 0.0, 0.0, 1.0, 1.0, 256.0, 1.0, 1.606468021933907E9, 2020-11-27 14:52:01.933
113.0, -29291.22265625, 15486.47265625, -29435.2578125, 47726.26953125, 3227.2119140625, 19.17779541015625, 25531.994140625, 33912.3125, 0.0, 0.0, 0.0, 193.0, 0.0, 1.0, 1.0, 0.0, 0.0, 1.0, 1.0, 256.0, 1.0, 1.60646802193391E9, 2020-11-27 14:52:01.933
114.0, -29068.7109375, 15706.5029296875, -29224.32421875, 47703.76171875, 3361.0986328125, 149.3990478515625, 25686.265625, 34023.46484375, 0.0, 0.0, 0.0, 193.0, 0.0, 1.0, 1.0, 0.0, 0.0, 1.0, 1.0, 256.0, 1.0, 1.606468021933914E9, 2020-11-27 14:52:01.933
115.0, -29064.330078125, 15707.375, -29226.939453125, 47776.6953125, 3340.177490234375, 132.45643615722656, 25684.6796875, 33986.23046875, 0.0, 0.0, 0.0, 193.0, 0.0, 1.0, 1.0, 0.0, 0.0, 1.0, 1.0, 256.0, 1.0, 1.606468021933918E9, 2020-11-27 14:52:01.933
116.0, -29155.7265625, 15612.4921875, -29322.91796875, 47730.1796875, 3280.3642578125, 73.29136657714844, 25610.314453125, 33927.265625, 0.0, 0.0, 0.0, 193.0, 0.0, 1.0, 1.0, 0.0, 0.0, 1.0, 1.0, 256.0, 1.0, 1.606468021933922E9, 2020-11-27 14:52:01.933
117.0, -29261.115234375, 15491.1669921875, -29441.650390625, 47682.90625, 3232.3974609375, 2.7492644786834717, 25527.234375, 33883.87890625, 0.0, 0.0, 0.0, 193.0, 0.0, 1.0, 1.0, 0.0, 0.0, 1.0, 1.0, 256.0, 1.0, 1.60646802193397E9, 2020-11-27 14:52:01.933
118.0, -29281.7890625, 15491.3681640625, -29438.05078125, 47809.015625, 3232.151611328125, -0.9164214730262756, 25527.45703125, 33914.58984375, 0.0, 0.0, 0.0, 193.0, 0.0, 1.0, 1.0, 0.0, 0.0, 1.0, 1.0, 256.0, 1.0, 1.606468021933975E9, 2020-11-27 14:52:01.933
119.0, -29055.5234375, 15725.501953125, -29214.287109375, 48009.04296875, 3352.962646484375, 112.27281188964844, 25678.64453125, 34016.3359375, 0.0, 0.0, 0.0, 193.0, 0.0, 1.0, 1.0, 0.0, 0.0, 1.0, 1.0, 256.0, 1.0, 1.606468021933979E9, 2020-11-27 14:52:01.933
120.0, -29039.138671875, 15719.958984375, -29222.736328125, 47994.58203125, 3342.81494140625, 105.58963775634766, 25692.369140625, 33981.9375, 0.0, 0.0, 0.0, 193.0, 0.0, 1.0, 1.0, 0.0, 0.0, 1.0, 1.0, 256.0, 1.0, 1.606468021933983E9, 2020-11-27 14:52:01.933
121.0, -29133.083984375, 15617.1181640625, -29321.375, 47865.56640625, 3281.414794921875, 43.94352722167969, 25616.751953125, 33928.5625, 0.0, 0.0, 0.0, 193.0, 0.0, 1.0, 1.0, 0.0, 0.0, 1.0, 1.0, 256.0, 1.0, 1.606468021993853E9, 2020-11-27 14:52:01.993
122.0, -29257.962890625, 15497.7607421875, -29432.060546875, 47666.5234375, 3209.240966796875, 0.5811453461647034, 25529.736328125, 33885.9375, 0.0, 0.0, 0.0, 193.0, 0.0, 1.0, 1.0, 0.0, 0.0, 1.0, 1.0, 256.0, 1.0, 1.606468021993872E9, 2020-11-27 14:52:01.993
123.0, -29272.201171875, 15491.748046875, -29433.267578125, 47570.8125, 3213.040771484375, 24.162235260009766, 25522.875, 33913.921875, 0.0, 0.0, 0.0, 193.0, 0.0, 1.0, 1.0, 0.0, 0.0, 1.0, 1.0, 256.0, 1.0, 1.606468021993876E9, 2020-11-27 14:52:01.993
124.0, -29051.09765625, 15734.666015625, -29198.373046875, 47881.4140625, 3343.84326171875, 132.74700927734375, 25693.84375, 34028.83203125, 0.0, 0.0, 0.0, 193.0, 0.0, 1.0, 1.0, 0.0, 0.0, 1.0, 1.0, 256.0, 1.0, 1.60646802199388E9, 2020-11-27 14:52:01.993
125.0, -29046.248046875, 15732.296875, -29205.369140625, 48028.80078125, 3324.710205078125, 96.31365966796875, 25695.36328125, 33989.3125, 0.0, 0.0, 0.0, 193.0, 0.0, 1.0, 1.0, 0.0, 0.0, 1.0, 1.0, 256.0, 1.0, 1.606468021993884E9, 2020-11-27 14:52:01.993
126.0, -29130.669921875, 15630.6865234375, -29317.57421875, 47978.80078125, 3272.384765625, 27.157367706298828, 25606.560546875, 33933.34375, 0.0, 0.0, 0.0, 193.0, 0.0, 1.0, 1.0, 0.0, 0.0, 1.0, 1.0, 256.0, 1.0, 1.606468021993888E9, 2020-11-27 14:52:01.993
127.0, -29258.0078125, 15514.4794921875, -29409.373046875, 47792.83203125, 3208.5927734375, 0.24586917459964752, 25537.1796875, 33889.9609375, 0.0, 0.0, 0.0, 193.0, 0.0, 1.0, 1.0, 0.0, 0.0, 1.0, 1.0, 256.0, 1.0, 1.606468021993892E9, 2020-11-27 14:52:01.993
128.0, -29270.16796875, 15502.587890625, -29422.337890625, 47713.77734375, 3206.938720703125, -1.4752150774002075, 25530.630859375, 33906.38671875, 0.0, 0.0, 0.0, 193.0, 0.0, 1.0, 1.0, 0.0, 0.0, 1.0, 1.0, 256.0, 1.0, 1.606468021993895E9, 2020-11-27 14:52:01.993
129.0, -29023.626953125, 15731.2021484375, -29219.18359375, 47917.82421875, 3344.111328125, 105.00849151611328, 25665.791015625, 34011.26171875, 0.0, 0.0, 0.0, 193.0, 0.0, 1.0, 1.0, 0.0, 0.0, 1.0, 1.0, 256.0, 1.0, 1.606468021993899E9, 2020-11-27 14:52:01.993
130.0, -29018.486328125, 15730.8447265625, -29213.21484375, 47949.9453125, 3335.1259765625, 102.95213317871094, 25682.197265625, 33981.55859375, 0.0, 0.0, 0.0, 193.0, 0.0, 1.0, 1.0, 0.0, 0.0, 1.0, 1.0, 256.0, 1.0, 1.606468021993903E9, 2020-11-27 14:52:01.993
131.0, -29131.453125, 15632.0947265625, -29296.36328125, 47791.11328125, 3261.633544921875, 75.57124328613281, 25622.228515625, 33929.3671875, 0.0, 0.0, 0.0, 193.0, 0.0, 1.0, 1.0, 0.0, 0.0, 1.0, 1.0, 256.0, 1.0, 1.606468021993907E9, 2020-11-27 14:52:01.993
132.0, -29253.828125, 15521.5205078125, -29394.93359375, 47763.6875, 3177.61328125, 4.649162769317627, 25547.619140625, 33883.1640625, 0.0, 0.0, 0.0, 193.0, 0.0, 1.0, 1.0, 0.0, 0.0, 1.0, 1.0, 256.0, 1.0, 1.606468021993912E9, 2020-11-27 14:52:01.993
133.0, -29264.580078125, 15509.5615234375, -29423.365234375, 47872.60546875, 3190.28662109375, -31.471254348754883, 25525.400390625, 33907.015625, 0.0, 0.0, 0.0, 193.0, 0.0, 1.0, 1.0, 0.0, 0.0, 1.0, 1.0, 256.0, 1.0, 1.606468021993916E9, 2020-11-27 14:52:01.993
134.0, -29038.736328125, 15724.5859375, -29226.513671875, 47984.87890625, 3319.479736328125, 75.50418853759766, 25656.78515625, 34008.7578125, 0.0, 0.0, 0.0, 193.0, 0.0, 1.0, 1.0, 0.0, 0.0, 1.0, 1.0, 256.0, 1.0, 1.60646802199392E9, 2020-11-27 14:52:01.993
135.0, -29033.216796875, 15719.2216796875, -29223.541015625, 47872.31640625, 3318.7197265625, 90.39044952392578, 25670.396484375, 33976.70703125, 0.0, 0.0, 0.0, 193.0, 0.0, 1.0, 1.0, 0.0, 0.0, 1.0, 1.0, 256.0, 1.0, 1.60646802199395E9, 2020-11-27 14:52:01.993
136.0, -29124.076171875, 15618.5048828125, -29315.51953125, 47716.75, 3254.614990234375, 65.13298034667969, 25616.796875, 33926.8828125, 0.0, 0.0, 0.0, 193.0, 0.0, 1.0, 1.0, 0.0, 0.0, 1.0, 1.0, 256.0, 1.0, 1.606468022054884E9, 2020-11-27 14:52:02.054
137.0, -29228.435546875, 15507.751953125, -29424.9296875, 47725.1953125, 3193.348876953125, -16.98732566833496, 25531.345703125, 33879.140625, 0.0, 0.0, 0.0, 193.0, 0.0, 1.0, 1.0, 0.0, 0.0, 1.0, 1.0, 256.0, 1.0, 1.606468022054902E9, 2020-11-27 14:52:02.054
138.0, -29262.8125, 15519.0615234375, -29409.6875, 47869.74609375, 3168.583251953125, -29.32548713684082, 25522.96484375, 33900.84375, 0.0, 0.0, 0.0, 193.0, 0.0, 1.0, 1.0, 0.0, 0.0, 1.0, 1.0, 256.0, 1.0, 1.606468022054906E9, 2020-11-27 14:52:02.054
139.0, -29043.87890625, 15746.826171875, -29195.826171875, 47872.76171875, 3298.46923828125, 85.2271957397461, 25659.041015625, 34001.515625, 0.0, 0.0, 0.0, 193.0, 0.0, 1.0, 1.0, 0.0, 0.0, 1.0, 1.0, 256.0, 1.0, 1.60646802205491E9, 2020-11-27 14:52:02.054
140.0, -29032.232421875, 15733.458984375, -29208.611328125, 47806.98046875, 3296.748046875, 78.49932098388672, 25665.791015625, 33968.63671875, 0.0, 0.0, 0.0, 193.0, 0.0, 1.0, 1.0, 0.0, 0.0, 1.0, 1.0, 256.0, 1.0, 1.606468022054946E9, 2020-11-27 14:52:02.054
141.0, -29106.59765625, 15644.8349609375, -29302.21875, 47930.23046875, 3247.216552734375, 8.60542106628418, 25603.4296875, 33917.25, 0.0, 0.0, 0.0, 193.0, 0.0, 1.0, 1.0, 0.0, 0.0, 1.0, 1.0, 256.0, 1.0, 1.60646802205495E9, 2020-11-27 14:52:02.054
142.0, -29216.232421875, 15529.6337890625, -29417.509765625, 47848.33203125, 3180.943603515625, -47.96684265136719, 25502.556640625, 33870.2890625, 0.0, 0.0, 0.0, 193.0, 0.0, 1.0, 1.0, 0.0, 0.0, 1.0, 1.0, 256.0, 1.0, 1.606468022054954E9, 2020-11-27 14:52:02.054
143.0, -29240.328125, 15508.82421875, -29437.73828125, 47668.4921875, 3167.577392578125, -26.9114990234375, 25487.380859375, 33888.1484375, 0.0, 0.0, 0.0, 193.0, 0.0, 1.0, 1.0, 0.0, 0.0, 1.0, 1.0, 256.0, 1.0, 1.606468022054958E9, 2020-11-27 14:52:02.054
144.0, -29025.68359375, 15742.4228515625, -29211.091796875, 47774.97265625, 3299.45263671875, 82.8132095336914, 25653.6328125, 33994.72265625, 0.0, 0.0, 0.0, 193.0, 0.0, 1.0, 1.0, 0.0, 0.0, 1.0, 1.0, 256.0, 1.0, 1.606468022054962E9, 2020-11-27 14:52:02.054
145.0, -29005.74609375, 15760.326171875, -29194.908203125, 47942.87890625, 3280.65478515625, 45.508148193359375, 25662.55078125, 33964.94921875, 0.0, 0.0, 0.0, 193.0, 0.0, 1.0, 1.0, 0.0, 0.0, 1.0, 1.0, 256.0, 1.0, 1.606468022054966E9, 2020-11-27 14:52:02.054
146.0, -29110.21875, 15663.5205078125, -29289.076171875, 47882.7109375, 3196.70166015625, -12.181700706481934, 25589.55078125, 33901.0703125, 0.0, 0.0, 0.0, 193.0, 0.0, 1.0, 1.0, 0.0, 0.0, 1.0, 1.0, 256.0, 1.0, 1.606468022054969E9, 2020-11-27 14:52:02.054
147.0, -29208.23046875, 15540.943359375, -29412.50390625, 47737.66796875, 3154.814453125, -68.66455841064453, 25506.087890625, 33859.29296875, 0.0, 0.0, 0.0, 193.0, 0.0, 1.0, 1.0, 0.0, 0.0, 1.0, 1.0, 256.0, 1.0, 1.606468022054974E9, 2020-11-27 14:52:02.054
148.0, -29216.455078125, 15540.4072265625, -29407.2734375, 47660.2421875, 3151.55126953125, -38.44499969482422, 25477.43359375, 33889.734375, 0.0, 0.0, 0.0, 193.0, 0.0, 1.0, 1.0, 0.0, 0.0, 1.0, 1.0, 256.0, 1.0, 1.606468022054978E9, 2020-11-27 14:52:02.054
149.0, -29008.40625, 15766.4501953125, -29183.15234375, 47694.88671875, 3260.024169921875, 92.67032623291016, 25638.544921875, 33989.06640625, 0.0, 0.0, 0.0, 193.0, 0.0, 1.0, 1.0, 0.0, 0.0, 1.0, 1.0, 256.0, 1.0, 1.606468022054982E9, 2020-11-27 14:52:02.054
150.0, -28985.205078125, 15756.4150390625, -29217.9765625, 47893.37109375, 3269.3447265625, 46.64809036254883, 25622.943359375, 33952.2109375, 0.0, 0.0, 0.0, 193.0, 0.0, 1.0, 1.0, 0.0, 0.0, 1.0, 1.0, 256.0, 1.0, 1.606468022054986E9, 2020-11-27 14:52:02.054
151.0, -29090.8828125, 15664.2138671875, -29305.68359375, 48037.94140625, 3199.741455078125, -41.596595764160156, 25566.68359375, 33900.8671875, 0.0, 0.0, 0.0, 193.0, 0.0, 1.0, 1.0, 0.0, 0.0, 1.0, 1.0, 256.0, 1.0, 1.606468022112968E9, 2020-11-27 14:52:02.112
152.0, -29201.97265625, 15563.0498046875, -29389.14453125, 47877.7265625, 3139.168212890625, -74.36425018310547, 25493.75, 33860.72265625, 0.0, 0.0, 0.0, 193.0, 0.0, 1.0, 1.0, 0.0, 0.0, 1.0, 1.0, 256.0, 1.0, 1.606468022112987E9, 2020-11-27 14:52:02.112
153.0, -29207.828125, 15548.521484375, -29409.84375, 47748.734375, 3138.587158203125, -60.394412994384766, 25474.908203125, 33885.9375, 0.0, 0.0, 0.0, 193.0, 0.0, 1.0, 1.0, 0.0, 0.0, 1.0, 1.0, 256.0, 1.0, 1.606468022112991E9, 2020-11-27 14:52:02.112
154.0, -28981.517578125, 15762.9638671875, -29212.052734375, 47861.72265625, 3275.402099609375, 51.85604476928711, 25624.173828125, 33984.12890625, 0.0, 0.0, 0.0, 193.0, 0.0, 1.0, 1.0, 0.0, 0.0, 1.0, 1.0, 256.0, 1.0, 1.606468022112995E9, 2020-11-27 14:52:02.112
155.0, -28975.794921875, 15765.466796875, -29201.345703125, 47812.48046875, 3263.779296875, 55.85700607299805, 25633.44921875, 33961.171875, 0.0, 0.0, 0.0, 193.0, 0.0, 1.0, 1.0, 0.0, 0.0, 1.0, 1.0, 256.0, 1.0, 1.606468022112999E9, 2020-11-27 14:52:02.112
156.0, -29095.041015625, 15661.666015625, -29289.03125, 47756.80078125, 3184.408203125, 8.270145416259766, 25571.154296875, 33903.52734375, 0.0, 0.0, 0.0, 193.0, 0.0, 1.0, 1.0, 0.0, 0.0, 1.0, 1.0, 256.0, 1.0, 1.606468022113003E9, 2020-11-27 14:52:02.113
157.0, -29211.494140625, 15556.791015625, -29382.865234375, 47638.671875, 3122.069091796875, -41.39542770385742, 25509.77734375, 33866.89453125, 0.0, 0.0, 0.0, 193.0, 0.0, 1.0, 1.0, 0.0, 0.0, 1.0, 1.0, 256.0, 1.0, 1.606468022113007E9, 2020-11-27 14:52:02.113
158.0, -29210.689453125, 15544.36328125, -29416.03515625, 47764.37890625, 3146.700927734375, -78.07463836669922, 25463.330078125, 33881.12890625, 0.0, 0.0, 0.0, 193.0, 0.0, 1.0, 1.0, 0.0, 0.0, 1.0, 1.0, 256.0, 1.0, 1.606468022113011E9, 2020-11-27 14:52:02.113
159.0, -28993.095703125, 15775.3466796875, -29197.658203125, 48082.01953125, 3253.09521484375, 17.70258140563965, 25611.833984375, 33985.4921875, 0.0, 0.0, 0.0, 193.0, 0.0, 1.0, 1.0, 0.0, 0.0, 1.0, 1.0, 256.0, 1.0, 1.606468022113015E9, 2020-11-27 14:52:02.113
160.0, -28987.57421875, 15771.3681640625, -29193.701171875, 47947.39453125, 3239.058349609375, 39.026145935058594, 25640.1328125, 33957.1953125, 0.0, 0.0, 0.0, 193.0, 0.0, 1.0, 1.0, 0.0, 0.0, 1.0, 1.0, 256.0, 1.0, 1.606468022113019E9, 2020-11-27 14:52:02.113
161.0, -29075.70703125, 15664.8173828125, -29291.333984375, 47774.4140625, 3191.471435546875, 6.929040431976318, 25581.033203125, 33906.5234375, 0.0, 0.0, 0.0, 193.0, 0.0, 1.0, 1.0, 0.0, 0.0, 1.0, 1.0, 256.0, 1.0, 1.606468022113022E9, 2020-11-27 14:52:02.113
162.0, -29180.40234375, 15548.0517578125, -29404.478515625, 47700.7890625, 3137.35791015625, -45.977535247802734, 25496.0078125, 33864.8125, 0.0, 0.0, 0.0, 193.0, 0.0, 1.0, 1.0, 0.0, 0.0, 1.0, 1.0, 256.0, 1.0, 1.606468022113027E9, 2020-11-27 14:52:02.113
163.0, -29210.01953125, 15541.546875, -29411.5859375, 47793.7265625, 3117.710693359375, -61.64611053466797, 25477.814453125, 33888.10546875, 0.0, 0.0, 0.0, 193.0, 0.0, 1.0, 1.0, 0.0, 0.0, 1.0, 1.0, 256.0, 1.0, 1.606468022113061E9, 2020-11-27 14:52:02.113
164.0, -29009.009765625, 15766.00390625, -29185.72265625, 47846.0078125, 3245.853271484375, 70.25153350830078, 25654.169921875, 33997.58203125, 0.0, 0.0, 0.0, 193.0, 0.0, 1.0, 1.0, 0.0, 0.0, 1.0, 1.0, 256.0, 1.0, 1.606468022113065E9, 2020-11-27 14:52:02.113
165.0, -28988.46875, 15764.9755859375, -29191.0859375, 47822.62890625, 3242.9921875, 64.4624252319336, 25662.373046875, 33967.1171875, 0.0, 0.0, 0.0, 193.0, 0.0, 1.0, 1.0, 0.0, 0.0, 1.0, 1.0, 256.0, 1.0, 1.606468022113069E9, 2020-11-27 14:52:02.113
166.0, -29079.775390625, 15660.7265625, -29299.603515625, 47826.3828125, 3189.169189453125, 1.1175872087478638, 25574.216796875, 33908.578125, 0.0, 0.0, 0.0, 193.0, 0.0, 1.0, 1.0, 0.0, 0.0, 1.0, 1.0, 256.0, 1.0, 1.606468022173028E9, 2020-11-27 14:52:02.173
167.0, -29198.10546875, 15545.9287109375, -29409.91015625, 47841.5390625, 3128.6630859375, -72.2184829711914, 25492.56640625, 33864.8828125, 0.0, 0.0, 0.0, 193.0, 0.0, 1.0, 1.0, 0.0, 0.0, 1.0, 1.0, 256.0, 1.0, 1.606468022173046E9, 2020-11-27 14:52:02.173
168.0, -29217.662109375, 15538.3505859375, -29404.703125, 47702.375, 3114.55908203125, -45.79872131347656, 25488.900390625, 33890.80859375, 0.0, 0.0, 0.0, 193.0, 0.0, 1.0, 1.0, 0.0, 0.0, 1.0, 1.0, 256.0, 1.0, 1.606468022173051E9, 2020-11-27 14:52:02.173
169.0, -29002.103515625, 15760.728515625, -29186.236328125, 47646.875, 3233.984375, 93.89967346191406, 25644.78125, 33994.1171875, 0.0, 0.0, 0.0, 193.0, 0.0, 1.0, 1.0, 0.0, 0.0, 1.0, 1.0, 256.0, 1.0, 1.606468022173055E9, 2020-11-27 14:52:02.173
170.0, -28992.826171875, 15768.1044921875, -29187.01953125, 47878.62109375, 3227.7705078125, 69.93860626220703, 25659.154296875, 33961.93359375, 0.0, 0.0, 0.0, 193.0, 0.0, 1.0, 1.0, 0.0, 0.0, 1.0, 1.0, 256.0, 1.0, 1.60646802217306E9, 2020-11-27 14:52:02.173
171.0, -29089.654296875, 15667.6337890625, -29286.73046875, 47963.84765625, 3160.6259765625, -14.439226150512695, 25581.302734375, 33911.953125, 0.0, 0.0, 0.0, 193.0, 0.0, 1.0, 1.0, 0.0, 0.0, 1.0, 1.0, 256.0, 1.0, 1.606468022173065E9, 2020-11-27 14:52:02.173
172.0, -29206.28515625, 15541.9716796875, -29403.607421875, 47822.359375, 3102.109130859375, -67.30110168457031, 25494.353515625, 33865.1484375, 0.0, 0.0, 0.0, 193.0, 0.0, 1.0, 1.0, 0.0, 0.0, 1.0, 1.0, 256.0, 1.0, 1.606468022173069E9, 2020-11-27 14:52:02.173
173.0, -29232.9296875, 15530.1923828125, -29406.916015625, 47801.4609375, 3113.419189453125, -45.01641082763672, 25492.208984375, 33886.875, 0.0, 0.0, 0.0, 193.0, 0.0, 1.0, 1.0, 0.0, 0.0, 1.0, 1.0, 256.0, 1.0, 1.606468022173074E9, 2020-11-27 14:52:02.173
174.0, -29017.681640625, 15759.6337890625, -29175.484375, 47828.05859375, 3233.47021484375, 100.73931121826172, 25672.765625, 34007.796875, 0.0, 0.0, 0.0, 193.0, 0.0, 1.0, 1.0, 0.0, 0.0, 1.0, 1.0, 256.0, 1.0, 1.606468022173091E9, 2020-11-27 14:52:02.173
175.0, -28993.609375, 15755.140625, -29192.8515625, 47826.67578125, 3235.213623046875, 95.46429443359375, 25676.408203125, 33978.96484375, 0.0, 0.0, 0.0, 193.0, 0.0, 1.0, 1.0, 0.0, 0.0, 1.0, 1.0, 256.0, 1.0, 1.606468022173095E9, 2020-11-27 14:52:02.173
176.0, -29073.896484375, 15656.4580078125, -29296.095703125, 47905.91015625, 3187.872802734375, 29.951335906982422, 25600.078125, 33922.50390625, 0.0, 0.0, 0.0, 193.0, 0.0, 1.0, 1.0, 0.0, 0.0, 1.0, 1.0, 256.0, 1.0, 1.6064680221731E9, 2020-11-27 14:52:02.173
177.0, -29183.7109375, 15534.08203125, -29409.171875, 47777.546875, 3121.599853515625, -26.866796493530273, 25523.814453125, 33881.265625, 0.0, 0.0, 0.0, 193.0, 0.0, 1.0, 1.0, 0.0, 0.0, 1.0, 1.0, 256.0, 1.0, 1.606468022173105E9, 2020-11-27 14:52:02.173
178.0, -29220.814453125, 15512.3779296875, -29422.962890625, 47676.3125, 3118.917724609375, -5.856156826019287, 25515.498046875, 33903.7265625, 0.0, 0.0, 0.0, 193.0, 0.0, 1.0, 1.0, 0.0, 0.0, 1.0, 1.0, 256.0, 1.0, 1.60646802217311E9, 2020-11-27 14:52:02.173
179.0, -29029.685546875, 15740.3212890625, -29189.58984375, 47797.16796875, 3224.9765625, 114.06095123291016, 25679.783203125, 34009.00390625, 0.0, 0.0, 0.0, 193.0, 0.0, 1.0, 1.0, 0.0, 0.0, 1.0, 1.0, 256.0, 1.0, 1.606468022173115E9, 2020-11-27 14:52:02.173
180.0, -29033.484375, 15748.79296875, -29174.14453125, 47901.39453125, 3205.932861328125, 110.37290954589844, 25704.884765625, 33981.04296875, 0.0, 0.0, 0.0, 193.0, 0.0, 1.0, 1.0, 0.0, 0.0, 1.0, 1.0, 256.0, 1.0, 1.606468022173119E9, 2020-11-27 14:52:02.173
181.0, -29121.9296875, 15651.2275390625, -29267.529296875, 47831.79296875, 3159.396728515625, 57.4439811706543, 25639.3046875, 33931.78125, 0.0, 0.0, 0.0, 193.0, 0.0, 1.0, 1.0, 0.0, 0.0, 1.0, 1.0, 256.0, 1.0, 1.606468022233925E9, 2020-11-27 14:52:02.233
182.0, -29226.044921875, 15534.6181640625, -29380.62890625, 47759.10546875, 3112.234375, 0.31292441487312317, 25551.798828125, 33885.109375, 0.0, 0.0, 0.0, 193.0, 0.0, 1.0, 1.0, 0.0, 0.0, 1.0, 1.0, 256.0, 1.0, 1.606468022233947E9, 2020-11-27 14:52:02.233
183.0, -29241.69140625, 15521.1181640625, -29397.818359375, 47759.84375, 3128.595947265625, 17.791988372802734, 25554.703125, 33918.03515625, 0.0, 0.0, 0.0, 193.0, 0.0, 1.0, 1.0, 0.0, 0.0, 1.0, 1.0, 256.0, 1.0, 1.606468022233951E9, 2020-11-27 14:52:02.233
184.0, -29017.345703125, 15737.4599609375, -29196.31640625, 47818.0234375, 3260.64990234375, 139.60899353027344, 25694.9609375, 34027.19921875, 0.0, 0.0, 0.0, 193.0, 0.0, 1.0, 1.0, 0.0, 0.0, 1.0, 1.0, 256.0, 1.0, 1.606468022233956E9, 2020-11-27 14:52:02.233
185.0, -29013.5234375, 15735.2470703125, -29193.6796875, 47841.44921875, 3252.715087890625, 139.11724853515625, 25701.978515625, 33997.13671875, 0.0, 0.0, 0.0, 193.0, 0.0, 1.0, 1.0, 0.0, 0.0, 1.0, 1.0, 256.0, 1.0, 1.60646802223396E9, 2020-11-27 14:52:02.233
186.0, -29116.498046875, 15644.96875, -29265.853515625, 47826.046875, 3188.878662109375, 99.82288360595703, 25658.86328125, 33949.1484375, 0.0, 0.0, 0.0, 193.0, 0.0, 1.0, 1.0, 0.0, 0.0, 1.0, 1.0, 256.0, 1.0, 1.606468022233965E9, 2020-11-27 14:52:02.233
187.0, -29229.53125, 15527.287109375, -29383.177734375, 47828.88671875, 3117.93408203125, 10.7064847946167, 25561.900390625, 33898.1171875, 0.0, 0.0, 0.0, 193.0, 0.0, 1.0, 1.0, 0.0, 0.0, 1.0, 1.0, 256.0, 1.0, 1.606468022234002E9, 2020-11-27 14:52:02.234
188.0, -29250.966796875, 15515.7978515625, -29392.72265625, 47834.36328125, 3115.609619140625, 10.25944995880127, 25547.373046875, 33919.9765625, 0.0, 0.0, 0.0, 193.0, 0.0, 1.0, 1.0, 0.0, 0.0, 1.0, 1.0, 256.0, 1.0, 1.606468022234007E9, 2020-11-27 14:52:02.234
189.0, -29032.27734375, 15738.130859375, -29182.63671875, 47948.4921875, 3235.325439453125, 129.61776733398438, 25698.447265625, 34027.69140625, 0.0, 0.0, 0.0, 193.0, 0.0, 1.0, 1.0, 0.0, 0.0, 1.0, 1.0, 256.0, 1.0, 1.606468022234011E9, 2020-11-27 14:52:02.234
190.0, -29021.59375, 15735.8955078125, -29184.60546875, 47986.30859375, 3224.9765625, 116.2961196899414, 25711.009765625, 33993.5390625, 0.0, 0.0, 0.0, 193.0, 0.0, 1.0, 1.0, 0.0, 0.0, 1.0, 1.0, 256.0, 1.0, 1.606468022234016E9, 2020-11-27 14:52:02.234
191.0, -29116.857421875, 15640.9453125, -29277.923828125, 47887.2265625, 3174.171142578125, 77.560546875, 25647.150390625, 33944.38671875, 0.0, 0.0, 0.0, 193.0, 0.0, 1.0, 1.0, 0.0, 0.0, 1.0, 1.0, 256.0, 1.0, 1.60646802223402E9, 2020-11-27 14:52:02.234
192.0, -29230.24609375, 15518.6142578125, -29386.44140625, 47744.0625, 3113.620361328125, 40.07667541503906, 25573.009765625, 33902.9921875, 0.0, 0.0, 0.0, 193.0, 0.0, 1.0, 1.0, 0.0, 0.0, 1.0, 1.0, 256.0, 1.0, 1.606468022234025E9, 2020-11-27 14:52:02.234
193.0, -29256.64453125, 15500.7998046875, -29392.453125, 47579.08203125, 3109.373291015625, 70.18447875976562, 25562.572265625, 33925.56640625, 0.0, 0.0, 0.0, 193.0, 0.0, 1.0, 1.0, 0.0, 0.0, 1.0, 1.0, 256.0, 1.0, 1.60646802223403E9, 2020-11-27 14:52:02.234
194.0, -29050.986328125, 15729.5703125, -29177.318359375, 47777.61328125, 3220.953369140625, 174.1871337890625, 25731.3046875, 34037.9296875, 0.0, 0.0, 0.0, 193.0, 0.0, 1.0, 1.0, 0.0, 0.0, 1.0, 1.0, 256.0, 1.0, 1.606468022234034E9, 2020-11-27 14:52:02.234
195.0, -29029.08203125, 15735.0244140625, -29187.263671875, 48085.75390625, 3219.4111328125, 106.26019287109375, 25710.16015625, 33998.4765625, 0.0, 0.0, 0.0, 193.0, 0.0, 1.0, 1.0, 0.0, 0.0, 1.0, 1.0, 256.0, 1.0, 1.606468022234039E9, 2020-11-27 14:52:02.234
196.0, -29128.837890625, 15628.96484375, -29284.583984375, 48012.4609375, 3160.782470703125, 55.298213958740234, 25641.16015625, 33941.1015625, 0.0, 0.0, 0.0, 193.0, 0.0, 1.0, 1.0, 0.0, 0.0, 1.0, 1.0, 256.0, 1.0, 1.606468022294967E9, 2020-11-27 14:52:02.294
197.0, -29252.30859375, 15503.1025390625, -29400.634765625, 47811.5625, 3097.4599609375, 12.71814250946045, 25554.546875, 33895.0546875, 0.0, 0.0, 0.0, 193.0, 0.0, 1.0, 1.0, 0.0, 0.0, 1.0, 1.0, 256.0, 1.0, 1.606468022294984E9, 2020-11-27 14:52:02.294
198.0, -29272.513671875, 15487.12109375, -29414.537109375, 47685.41015625, 3101.080810546875, 28.967859268188477, 25538.96875, 33914.5, 0.0, 0.0, 0.0, 193.0, 0.0, 1.0, 1.0, 0.0, 0.0, 1.0, 1.0, 256.0, 1.0, 1.606468022294988E9, 2020-11-27 14:52:02.294
199.0, -29049.5546875, 15714.326171875, -29203.939453125, 47843.99609375, 3235.727783203125, 143.5876007080078, 25690.84765625, 34025.25390625, 0.0, 0.0, 0.0, 193.0, 0.0, 1.0, 1.0, 0.0, 0.0, 1.0, 1.0, 256.0, 1.0, 1.606468022294993E9, 2020-11-27 14:52:02.294
200.0, -29040.056640625, 15722.685546875, -29193.76953125, 47957.07421875, 3221.5791015625, 126.64498138427734, 25712.193359375, 33999.41796875, 0.0, 0.0, 0.0, 193.0, 0.0, 1.0, 1.0, 0.0, 0.0, 1.0, 1.0, 256.0, 1.0, 1.606468022294997E9, 2020-11-27 14:52:02.294
201.0, -29125.26171875, 15624.7177734375, -29283.33203125, 47863.64453125, 3165.073974609375, 87.66353607177734, 25654.52734375, 33948.0078125, 0.0, 0.0, 0.0, 193.0, 0.0, 1.0, 1.0, 0.0, 0.0, 1.0, 1.0, 256.0, 1.0, 1.606468022295001E9, 2020-11-27 14:52:02.295
202.0, -29244.484375, 15505.9189453125, -29389.435546875, 47663.4375, 3107.13818359375, 62.83074951171875, 25575.22265625, 33907.015625, 0.0, 0.0, 0.0, 193.0, 0.0, 1.0, 1.0, 0.0, 0.0, 1.0, 1.0, 256.0, 1.0, 1.606468022295006E9, 2020-11-27 14:52:02.295
203.0, -29273.228515625, 15496.7548828125, -29402.265625, 47644.39453125, 3102.824462890625, 64.59654235839844, 25562.884765625, 33933.72265625, 0.0, 0.0, 0.0, 193.0, 0.0, 1.0, 1.0, 0.0, 0.0, 1.0, 1.0, 256.0, 1.0, 1.60646802229501E9, 2020-11-27 14:52:02.295
204.0, -29052.9296875, 15722.1943359375, -29198.685546875, 47976.4765625, 3219.58984375, 118.41954040527344, 25696.435546875, 34028.31640625, 0.0, 0.0, 0.0, 193.0, 0.0, 1.0, 1.0, 0.0, 0.0, 1.0, 1.0, 256.0, 1.0, 1.606468022295014E9, 2020-11-27 14:52:02.295
205.0, -29046.380859375, 15720.9873046875, -29191.19921875, 48004.4140625, 3217.265380859375, 110.70818328857422, 25703.677734375, 33993.3359375, 0.0, 0.0, 0.0, 193.0, 0.0, 1.0, 1.0, 0.0, 0.0, 1.0, 1.0, 256.0, 1.0, 1.606468022295018E9, 2020-11-27 14:52:02.295
206.0, -29143.857421875, 15616.380859375, -29280.716796875, 47747.59375, 3149.53955078125, 81.78502655029297, 25641.5625, 33939.6015625, 0.0, 0.0, 0.0, 193.0, 0.0, 1.0, 1.0, 0.0, 0.0, 1.0, 1.0, 256.0, 1.0, 1.606468022295022E9, 2020-11-27 14:52:02.295
207.0, -29250.36328125, 15505.9853515625, -29395.380859375, 47687.48828125, 3075.912841796875, 20.96593475341797, 25562.19140625, 33897.55859375, 0.0, 0.0, 0.0, 193.0, 0.0, 1.0, 1.0, 0.0, 0.0, 1.0, 1.0, 256.0, 1.0, 1.606468022295026E9, 2020-11-27 14:52:02.295
208.0, -29263.08203125, 15500.0625, -29406.244140625, 47812.63671875, 3081.590087890625, 4.895031929016113, 25543.193359375, 33922.75, 0.0, 0.0, 0.0, 193.0, 0.0, 1.0, 1.0, 0.0, 0.0, 1.0, 1.0, 256.0, 1.0, 1.606468022295031E9, 2020-11-27 14:52:02.295
209.0, -29053.17578125, 15723.3115234375, -29185.275390625, 47930.20703125, 3215.87939453125, 127.44964599609375, 25702.203125, 34028.5625, 0.0, 0.0, 0.0, 193.0, 0.0, 1.0, 1.0, 0.0, 0.0, 1.0, 1.0, 256.0, 1.0, 1.606468022295036E9, 2020-11-27 14:52:02.295
210.0, -29040.189453125, 15733.236328125, -29182.90625, 48015.5703125, 3209.21875, 105.7013931274414, 25698.828125, 33993.78515625, 0.0, 0.0, 0.0, 193.0, 0.0, 1.0, 1.0, 0.0, 0.0, 1.0, 1.0, 256.0, 1.0, 1.606468022295085E9, 2020-11-27 14:52:02.295
211.0, -29129.328125, 15631.9375, -29284.025390625, 47934.8359375, 3148.421875, 42.33420181274414, 25621.982421875, 33933.65625, 0.0, 0.0, 0.0, 193.0, 0.0, 1.0, 1.0, 0.0, 0.0, 1.0, 1.0, 256.0, 1.0, 1.60646802235305E9, 2020-11-27 14:52:02.353
212.0, -29227.85546875, 15529.5888671875, -29389.16796875, 47805.44140625, 3078.8408203125, -13.79102611541748, 25540.755859375, 33877.28515625, 0.0, 0.0, 0.0, 193.0, 0.0, 1.0, 1.0, 0.0, 0.0, 1.0, 1.0, 256.0, 1.0, 1.606468022353076E9, 2020-11-27 14:52:02.353
