%OpenBCI Raw EEG Data
%Number of channels = 8
%Sample Rate = 250 Hz
%Board = OpenBCI_GUI$BoardCytonSerial
Sample Index, EXG Channel 0, EXG Channel 1, EXG Channel 2, EXG Channel 3, EXG Channel 4, EXG Channel 5, EXG Channel 6, EXG Channel 7, Accel Channel 0, Accel Channel 1, Accel Channel 2, Other, Other, Other, Other, Other, Other, Other, Analog Channel 0, Analog Channel 1, Analog Channel 2, Timestamp, Timestamp (Formatted)
28.0, 36487.5, 31801.345703125, 25956.251953125, 23937.890625, 30019.173828125, 32304.572265625, 33146.2734375, 27286.115234375, 0.0, 0.0, 0.0, 193.0, 0.0, 1.0, 1.0, 0.0, 0.0, 1.0, 1.0, 256.0, 1.0, 1.608195813452206E9, 2020-12-17 14:48:33.452
29.0, 36613.6328125, 31946.54296875, 26096.8671875, 24098.890625, 30128.048828125, 32432.447265625, 33263.44140625, 27418.369140625, 0.0, 0.0, 0.0, 193.0, 0.0, 1.0, 1.0, 0.0, 0.0, 1.0, 1.0, 256.0, 1.0, 1.608195813452211E9, 2020-12-17 14:48:33.452
30.0, 36600.30859375, 31923.072265625, 26074.740234375, 24083.779296875, 30117.052734375, 32426.8359375, 33251.48046875, 27406.2109375, 0.0, 0.0, 0.0, 193.0, 0.0, 1.0, 1.0, 0.0, 0.0, 1.0, 1.0, 256.0, 1.0, 1.608195813452215E9, 2020-12-17 14:48:33.452
31.0, 36507.55078125, 31812.41015625, 25965.1484375, 23958.69921875, 30043.8046875, 32326.701171875, 33171.015625, 27317.720703125, 0.0, 0.0, 0.0, 193.0, 0.0, 1.0, 1.0, 0.0, 0.0, 1.0, 1.0, 256.0, 1.0, 1.608195813452219E9, 2020-12-17 14:48:33.452
32.0, 36440.5625, 31737.822265625, 25892.4609375, 23872.712890625, 29982.919921875, 32250.16796875, 33102.6640625, 27238.662109375, 0.0, 0.0, 0.0, 193.0, 0.0, 1.0, 1.0, 0.0, 0.0, 1.0, 1.0, 256.0, 1.0, 1.608195813452223E9, 2020-12-17 14:48:33.452
33.0, 36495.76953125, 31802.328125, 25954.978515625, 23932.771484375, 30017.876953125, 32301.197265625, 33137.109375, 27275.341796875, 0.0, 0.0, 0.0, 193.0, 0.0, 1.0, 1.0, 0.0, 0.0, 1.0, 1.0, 256.0, 1.0, 1.608195813452227E9, 2020-12-17 14:48:33.452
34.0, 36602.41015625, 31926.291015625, 26078.0703125, 24063.57421875, 30109.095703125, 32417.26953125, 33240.77734375, 27388.529296875, 0.0, 0.0, 0.0, 193.0, 0.0, 1.0, 1.0, 0.0, 0.0, 1.0, 1.0, 256.0, 1.0, 1.608195813452231E9, 2020-12-17 14:48:33.452
35.0, 36597.875, 31913.103515625, 26063.8984375, 24044.955078125, 30099.640625, 32406.18359375, 33228.66015625, 27384.015625, 0.0, 0.0, 0.0, 193.0, 0.0, 1.0, 1.0, 0.0, 0.0, 1.0, 1.0, 256.0, 1.0, 1.608195813452235E9, 2020-12-17 14:48:33.452
36.0, 36517.09375, 31817.39453125, 25966.646484375, 23936.68359375, 30015.1953125, 32293.0625, 33143.07421875, 27296.306640625, 0.0, 0.0, 0.0, 193.0, 0.0, 1.0, 1.0, 0.0, 0.0, 1.0, 1.0, 256.0, 1.0, 1.608195813452239E9, 2020-12-17 14:48:33.452
37.0, 36448.40625, 31741.2421875, 25891.9921875, 23858.85546875, 29966.357421875, 32231.013671875, 33090.37109375, 27226.01171875, 0.0, 0.0, 0.0, 193.0, 0.0, 1.0, 1.0, 0.0, 0.0, 1.0, 1.0, 256.0, 1.0, 1.608195813452243E9, 2020-12-17 14:48:33.452
38.0, 36503.52734375, 31813.505859375, 25962.310546875, 23933.197265625, 30027.35546875, 32311.880859375, 33158.453125, 27292.10546875, 0.0, 0.0, 0.0, 193.0, 0.0, 1.0, 1.0, 0.0, 0.0, 1.0, 1.0, 256.0, 1.0, 1.608195813452247E9, 2020-12-17 14:48:33.452
39.0, 36597.08984375, 31927.052734375, 26070.693359375, 24061.5625, 30099.55078125, 32414.87890625, 33243.92578125, 27382.271484375, 0.0, 0.0, 0.0, 193.0, 0.0, 1.0, 1.0, 0.0, 0.0, 1.0, 1.0, 256.0, 1.0, 1.608195813452251E9, 2020-12-17 14:48:33.452
40.0, 36597.11328125, 31918.53515625, 26061.439453125, 24060.400390625, 30079.9921875, 32400.037109375, 33232.08203125, 27374.828125, 0.0, 0.0, 0.0, 193.0, 0.0, 1.0, 1.0, 0.0, 0.0, 1.0, 1.0, 256.0, 1.0, 1.608195813452256E9, 2020-12-17 14:48:33.452
41.0, 36522.99609375, 31826.693359375, 25973.708984375, 23964.958984375, 30009.830078125, 32307.791015625, 33156.578125, 27298.384765625, 0.0, 0.0, 0.0, 193.0, 0.0, 1.0, 1.0, 0.0, 0.0, 1.0, 1.0, 256.0, 1.0, 1.608195813452259E9, 2020-12-17 14:48:33.452
42.0, 36452.83203125, 31746.962890625, 25896.953125, 23875.328125, 29957.169921875, 32231.080078125, 33094.83984375, 27237.3203125, 0.0, 0.0, 0.0, 193.0, 0.0, 1.0, 1.0, 0.0, 0.0, 1.0, 1.0, 256.0, 1.0, 1.608195813452263E9, 2020-12-17 14:48:33.452
43.0, 36482.203125, 31804.900390625, 25951.15625, 23922.423828125, 29984.908203125, 32272.431640625, 33129.3984375, 27274.9609375, 0.0, 0.0, 0.0, 193.0, 0.0, 1.0, 1.0, 0.0, 0.0, 1.0, 1.0, 256.0, 1.0, 1.608195813452268E9, 2020-12-17 14:48:33.452
44.0, 36584.53125, 31915.384765625, 26060.30078125, 24049.224609375, 30076.640625, 32392.794921875, 33215.5625, 27373.64453125, 0.0, 0.0, 0.0, 193.0, 0.0, 1.0, 1.0, 0.0, 0.0, 1.0, 1.0, 256.0, 1.0, 1.608195813452272E9, 2020-12-17 14:48:33.452
45.0, 36580.6640625, 31902.888671875, 26048.6328125, 24038.00390625, 30072.55078125, 32381.6640625, 33210.80078125, 27372.146484375, 0.0, 0.0, 0.0, 193.0, 0.0, 1.0, 1.0, 0.0, 0.0, 1.0, 1.0, 256.0, 1.0, 1.608195813452276E9, 2020-12-17 14:48:33.452
0.0, 0.0, 0.0, 0.0, 0.0, 0.0, 0.0, 0.0, 0.0, 0.0, 0.0, 0.0, 193.0, 0.0, 1.0, 1.0, 0.0, 0.0, 1.0, 1.0, 256.0, 1.0, 1.608195813535279E9, 2020-12-17 14:48:33.535
1.0, 36463.25, 31731.630859375, 25937.09765625, 23967.953125, 30016.291015625, 32273.4375, 33142.359375, 27292.955078125, 0.0, 0.0, 0.0, 193.0, 0.0, 1.0, 1.0, 0.0, 0.0, 1.0, 1.0, 256.0, 1.0, 1.608195813610005E9, 2020-12-17 14:48:33.610
2.0, 36568.3671875, 31866.2109375, 26074.26953125, 24109.796875, 30089.1796875, 32401.22265625, 33266.14453125, 27398.275390625, 0.0, 0.0, 0.0, 193.0, 0.0, 1.0, 1.0, 0.0, 0.0, 1.0, 1.0, 256.0, 1.0, 1.608195813610021E9, 2020-12-17 14:48:33.610
3.0, 36629.078125, 31921.150390625, 26119.533203125, 24176.65234375, 30155.228515625, 32500.6875, 33292.98828125, 27448.521484375, 0.0, 0.0, 0.0, 193.0, 0.0, 1.0, 1.0, 0.0, 0.0, 1.0, 1.0, 256.0, 1.0, 1.608195813610026E9, 2020-12-17 14:48:33.610
4.0, 36564.703125, 31851.525390625, 26053.236328125, 24097.34765625, 30094.23046875, 32415.68359375, 33237.84765625, 27385.625, 0.0, 0.0, 0.0, 193.0, 0.0, 1.0, 1.0, 0.0, 0.0, 1.0, 1.0, 256.0, 1.0, 1.608195813610031E9, 2020-12-17 14:48:33.610
5.0, 36484.1015625, 31751.388671875, 25959.806640625, 24005.125, 30027.958984375, 32309.69140625, 33155.4140625, 27290.919921875, 0.0, 0.0, 0.0, 193.0, 0.0, 1.0, 1.0, 0.0, 0.0, 1.0, 1.0, 256.0, 1.0, 1.608195813610037E9, 2020-12-17 14:48:33.610
6.0, 36454.0625, 31737.8671875, 25945.79296875, 23981.365234375, 30003.86328125, 32282.400390625, 33149.6015625, 27280.52734375, 0.0, 0.0, 0.0, 193.0, 0.0, 1.0, 1.0, 0.0, 0.0, 1.0, 1.0, 256.0, 1.0, 1.608195813610062E9, 2020-12-17 14:48:33.610
7.0, 36571.4296875, 31867.841796875, 26079.34375, 24124.55078125, 30107.93359375, 32428.423828125, 33278.953125, 27396.64453125, 0.0, 0.0, 0.0, 193.0, 0.0, 1.0, 1.0, 0.0, 0.0, 1.0, 1.0, 256.0, 1.0, 1.608195813610068E9, 2020-12-17 14:48:33.610
8.0, 36648.9453125, 31935.859375, 26152.634765625, 24215.275390625, 30178.408203125, 32531.130859375, 33367.5546875, 27460.81640625, 0.0, 0.0, 0.0, 193.0, 0.0, 1.0, 1.0, 0.0, 0.0, 1.0, 1.0, 256.0, 1.0, 1.608195813610073E9, 2020-12-17 14:48:33.610
9.0, 36598.87890625, 31849.333984375, 26065.955078125, 24131.748046875, 30133.90625, 32488.908203125, 33275.44140625, 27382.47265625, 0.0, 0.0, 0.0, 193.0, 0.0, 1.0, 1.0, 0.0, 0.0, 1.0, 1.0, 256.0, 1.0, 1.608195813610079E9, 2020-12-17 14:48:33.610
10.0, 36500.8203125, 31751.30078125, 25971.294921875, 24035.90234375, 30078.47265625, 32390.447265625, 33195.0, 27300.642578125, 0.0, 0.0, 0.0, 193.0, 0.0, 1.0, 1.0, 0.0, 0.0, 1.0, 1.0, 256.0, 1.0, 1.608195813610084E9, 2020-12-17 14:48:33.610
11.0, 36501.4921875, 31762.87890625, 25986.494140625, 24064.87109375, 30092.666015625, 32421.0703125, 33214.87109375, 27306.208984375, 0.0, 0.0, 0.0, 193.0, 0.0, 1.0, 1.0, 0.0, 0.0, 1.0, 1.0, 256.0, 1.0, 1.60819581361009E9, 2020-12-17 14:48:33.610
12.0, 36621.90234375, 31899.537109375, 26119.33203125, 24208.32421875, 30179.234375, 32578.962890625, 33324.5703125, 27426.013671875, 0.0, 0.0, 0.0, 193.0, 0.0, 1.0, 1.0, 0.0, 0.0, 1.0, 1.0, 256.0, 1.0, 1.608195813610095E9, 2020-12-17 14:48:33.610
13.0, 36645.59375, 31951.52734375, 26174.62890625, 24239.638671875, 30187.884765625, 32600.041015625, 33416.55078125, 27485.55859375, 0.0, 0.0, 0.0, 193.0, 0.0, 1.0, 1.0, 0.0, 0.0, 1.0, 1.0, 256.0, 1.0, 1.608195813610102E9, 2020-12-17 14:48:33.610
14.0, 36554.9140625, 31850.453125, 26062.087890625, 24121.822265625, 30106.255859375, 32455.267578125, 33279.37890625, 27390.384765625, 0.0, 0.0, 0.0, 193.0, 0.0, 1.0, 1.0, 0.0, 0.0, 1.0, 1.0, 256.0, 1.0, 1.608195813610107E9, 2020-12-17 14:48:33.610
15.0, 36454.64453125, 31716.498046875, 25921.115234375, 23974.525390625, 30043.314453125, 32298.11328125, 33134.06640625, 27286.8515625, 0.0, 0.0, 0.0, 193.0, 0.0, 1.0, 1.0, 0.0, 0.0, 1.0, 1.0, 256.0, 1.0, 1.608195813610113E9, 2020-12-17 14:48:33.610
16.0, 36453.8828125, 31727.47265625, 25933.65625, 23975.3515625, 30026.349609375, 32294.4921875, 33136.953125, 27278.447265625, 0.0, 0.0, 0.0, 193.0, 0.0, 1.0, 1.0, 0.0, 0.0, 1.0, 1.0, 256.0, 1.0, 1.60819581367056E9, 2020-12-17 14:48:33.670
17.0, 36571.296875, 31868.244140625, 26075.142578125, 24119.275390625, 30107.9765625, 32449.27734375, 33249.87109375, 27380.4609375, 0.0, 0.0, 0.0, 193.0, 0.0, 1.0, 1.0, 0.0, 0.0, 1.0, 1.0, 256.0, 1.0, 1.608195813670567E9, 2020-12-17 14:48:33.670
18.0, 36624.0703125, 31935.6796875, 26143.470703125, 24189.705078125, 30157.552734375, 32511.416015625, 33326.984375, 27452.076171875, 0.0, 0.0, 0.0, 193.0, 0.0, 1.0, 1.0, 0.0, 0.0, 1.0, 1.0, 256.0, 1.0, 1.608195813670569E9, 2020-12-17 14:48:33.670
19.0, 36550.0859375, 31832.5703125, 26041.771484375, 24082.3046875, 30077.154296875, 32382.490234375, 33261.046875, 27375.185546875, 0.0, 0.0, 0.0, 193.0, 0.0, 1.0, 1.0, 0.0, 0.0, 1.0, 1.0, 256.0, 1.0, 1.60819581367057E9, 2020-12-17 14:48:33.670
20.0, 36456.0078125, 31716.20703125, 25920.466796875, 23956.173828125, 29999.794921875, 32280.634765625, 33122.578125, 27259.8515625, 0.0, 0.0, 0.0, 193.0, 0.0, 1.0, 1.0, 0.0, 0.0, 1.0, 1.0, 256.0, 1.0, 1.608195813670571E9, 2020-12-17 14:48:33.670
21.0, 36478.22265625, 31723.8515625, 25922.859375, 23967.171875, 30034.6640625, 32287.787109375, 33083.44140625, 27250.083984375, 0.0, 0.0, 0.0, 193.0, 0.0, 1.0, 1.0, 0.0, 0.0, 1.0, 1.0, 256.0, 1.0, 1.608195813670573E9, 2020-12-17 14:48:33.670
22.0, 36579.1640625, 31870.0546875, 26070.603515625, 24119.966796875, 30111.732421875, 32418.923828125, 33214.9375, 27375.275390625, 0.0, 0.0, 0.0, 193.0, 0.0, 1.0, 1.0, 0.0, 0.0, 1.0, 1.0, 256.0, 1.0, 1.608195813670574E9, 2020-12-17 14:48:33.670
23.0, 36614.63671875, 31928.080078125, 26131.06640625, 24172.517578125, 30140.87890625, 32468.92578125, 33296.6328125, 27442.822265625, 0.0, 0.0, 0.0, 193.0, 0.0, 1.0, 1.0, 0.0, 0.0, 1.0, 1.0, 256.0, 1.0, 1.608195813670576E9, 2020-12-17 14:48:33.670
24.0, 36552.74609375, 31833.978515625, 26033.9921875, 24072.89453125, 30090.677734375, 32373.1484375, 33220.7265625, 27369.12890625, 0.0, 0.0, 0.0, 193.0, 0.0, 1.0, 1.0, 0.0, 0.0, 1.0, 1.0, 256.0, 1.0, 1.608195813670577E9, 2020-12-17 14:48:33.670
25.0, 36459.91796875, 31731.763671875, 25938.6171875, 23974.123046875, 30019.083984375, 32291.138671875, 33147.79296875, 27281.21875, 0.0, 0.0, 0.0, 193.0, 0.0, 1.0, 1.0, 0.0, 0.0, 1.0, 1.0, 256.0, 1.0, 1.608195813670578E9, 2020-12-17 14:48:33.670
26.0, 36467.5859375, 31739.498046875, 25952.54296875, 23995.0, 30033.8359375, 32325.716796875, 33155.59375, 27282.650390625, 0.0, 0.0, 0.0, 193.0, 0.0, 1.0, 1.0, 0.0, 0.0, 1.0, 1.0, 256.0, 1.0, 1.60819581367058E9, 2020-12-17 14:48:33.670
27.0, 36594.0078125, 31891.4453125, 26094.7890625, 24140.44140625, 30126.775390625, 32447.310546875, 33262.16796875, 27401.494140625, 0.0, 0.0, 0.0, 193.0, 0.0, 1.0, 1.0, 0.0, 0.0, 1.0, 1.0, 256.0, 1.0, 1.608195813670581E9, 2020-12-17 14:48:33.670
28.0, 36654.9140625, 31953.470703125, 26153.349609375, 24205.44140625, 30178.876953125, 32513.13671875, 33314.1796875, 27462.380859375, 0.0, 0.0, 0.0, 193.0, 0.0, 1.0, 1.0, 0.0, 0.0, 1.0, 1.0, 256.0, 1.0, 1.608195813670583E9, 2020-12-17 14:48:33.670
29.0, 36574.359375, 31846.8984375, 26050.533203125, 24101.169921875, 30110.66015625, 32417.78515625, 33231.3671875, 27382.294921875, 0.0, 0.0, 0.0, 193.0, 0.0, 1.0, 1.0, 0.0, 0.0, 1.0, 1.0, 256.0, 1.0, 1.608195813670591E9, 2020-12-17 14:48:33.670
30.0, 36461.7734375, 31726.712890625, 25930.01171875, 23972.646484375, 30014.525390625, 32299.4765625, 33127.33984375, 27271.162109375, 0.0, 0.0, 0.0, 193.0, 0.0, 1.0, 1.0, 0.0, 0.0, 1.0, 1.0, 256.0, 1.0, 1.608195813670593E9, 2020-12-17 14:48:33.670
31.0, 36453.1015625, 31736.078125, 25939.04296875, 23975.462890625, 30004.64453125, 32284.724609375, 33133.77734375, 27271.33984375, 0.0, 0.0, 0.0, 193.0, 0.0, 1.0, 1.0, 0.0, 0.0, 1.0, 1.0, 256.0, 1.0, 1.608195813729848E9, 2020-12-17 14:48:33.729
32.0, 36581.48828125, 31890.216796875, 26097.470703125, 24146.8125, 30123.578125, 32450.91015625, 33272.046875, 27407.328125, 0.0, 0.0, 0.0, 193.0, 0.0, 1.0, 1.0, 0.0, 0.0, 1.0, 1.0, 256.0, 1.0, 1.608195813729856E9, 2020-12-17 14:48:33.729
33.0, 36656.03125, 31959.259765625, 26165.935546875, 24226.943359375, 30181.068359375, 32529.6328125, 33328.83984375, 27468.326171875, 0.0, 0.0, 0.0, 193.0, 0.0, 1.0, 1.0, 0.0, 0.0, 1.0, 1.0, 256.0, 1.0, 1.608195813729859E9, 2020-12-17 14:48:33.729
34.0, 36576.28125, 31859.37109375, 26066.1796875, 24126.517578125, 30107.865234375, 32445.142578125, 33246.453125, 27382.96484375, 0.0, 0.0, 0.0, 193.0, 0.0, 1.0, 1.0, 0.0, 0.0, 1.0, 1.0, 256.0, 1.0, 1.608195813729863E9, 2020-12-17 14:48:33.729
35.0, 36470.9140625, 31742.560546875, 25951.357421875, 24000.341796875, 30017.921875, 32322.341796875, 33141.109375, 27284.349609375, 0.0, 0.0, 0.0, 193.0, 0.0, 1.0, 1.0, 0.0, 0.0, 1.0, 1.0, 256.0, 1.0, 1.608195813729865E9, 2020-12-17 14:48:33.729
36.0, 36475.6328125, 31747.388671875, 25959.560546875, 24010.01953125, 30040.474609375, 32335.1953125, 33154.2734375, 27302.38671875, 0.0, 0.0, 0.0, 193.0, 0.0, 1.0, 1.0, 0.0, 0.0, 1.0, 1.0, 256.0, 1.0, 1.608195813729868E9, 2020-12-17 14:48:33.729
37.0, 36597.1796875, 31902.083984375, 26109.384765625, 24167.912109375, 30139.44921875, 32472.703125, 33274.50390625, 27419.3984375, 0.0, 0.0, 0.0, 193.0, 0.0, 1.0, 1.0, 0.0, 0.0, 1.0, 1.0, 256.0, 1.0, 1.608195813729872E9, 2020-12-17 14:48:33.729
38.0, 36650.19921875, 31967.978515625, 26166.58203125, 24219.544921875, 30157.732421875, 32509.42578125, 33318.3359375, 27463.654296875, 0.0, 0.0, 0.0, 193.0, 0.0, 1.0, 1.0, 0.0, 0.0, 1.0, 1.0, 256.0, 1.0, 1.608195813729875E9, 2020-12-17 14:48:33.729
39.0, 36574.40234375, 31863.283203125, 26067.921875, 24125.935546875, 30101.25, 32433.38671875, 33239.48046875, 27376.259765625, 0.0, 0.0, 0.0, 193.0, 0.0, 1.0, 1.0, 0.0, 0.0, 1.0, 1.0, 256.0, 1.0, 1.608195813729878E9, 2020-12-17 14:48:33.729
40.0, 36463.29296875, 31741.666015625, 25951.15625, 24008.9921875, 30022.013671875, 32325.44921875, 33133.3515625, 27275.318359375, 0.0, 0.0, 0.0, 193.0, 0.0, 1.0, 1.0, 0.0, 0.0, 1.0, 1.0, 256.0, 1.0, 1.608195813729881E9, 2020-12-17 14:48:33.729
41.0, 36461.01171875, 31749.578125, 25961.908203125, 24018.646484375, 30019.419921875, 32320.978515625, 33137.51171875, 27282.806640625, 0.0, 0.0, 0.0, 193.0, 0.0, 1.0, 1.0, 0.0, 0.0, 1.0, 1.0, 256.0, 1.0, 1.608195813729884E9, 2020-12-17 14:48:33.729
42.0, 36583.1875, 31891.109375, 26101.875, 24163.75390625, 30112.40234375, 32455.537109375, 33259.6640625, 27398.611328125, 0.0, 0.0, 0.0, 193.0, 0.0, 1.0, 1.0, 0.0, 0.0, 1.0, 1.0, 256.0, 1.0, 1.608195813729887E9, 2020-12-17 14:48:33.729
43.0, 36640.7421875, 31957.115234375, 26165.0859375, 24226.16015625, 30153.57421875, 32512.82421875, 33315.5859375, 27455.02734375, 0.0, 0.0, 0.0, 193.0, 0.0, 1.0, 1.0, 0.0, 0.0, 1.0, 1.0, 256.0, 1.0, 1.608195813729908E9, 2020-12-17 14:48:33.729
44.0, 36555.875, 31855.369140625, 26062.55859375, 24118.470703125, 30074.5390625, 32407.099609375, 33224.546875, 27365.75390625, 0.0, 0.0, 0.0, 193.0, 0.0, 1.0, 1.0, 0.0, 0.0, 1.0, 1.0, 256.0, 1.0, 1.608195813729911E9, 2020-12-17 14:48:33.729
45.0, 36463.3828125, 31735.474609375, 25948.564453125, 24004.900390625, 30005.830078125, 32305.533203125, 33130.3125, 27267.138671875, 0.0, 0.0, 0.0, 193.0, 0.0, 1.0, 1.0, 0.0, 0.0, 1.0, 1.0, 256.0, 1.0, 1.608195813729914E9, 2020-12-17 14:48:33.729
46.0, 36465.640625, 31750.0703125, 25967.47265625, 24021.955078125, 30023.263671875, 32327.68359375, 33134.76171875, 27273.59765625, 0.0, 0.0, 0.0, 193.0, 0.0, 1.0, 1.0, 0.0, 0.0, 1.0, 1.0, 256.0, 1.0, 1.608195813789473E9, 2020-12-17 14:48:33.789
47.0, 36584.9765625, 31899.201171875, 26113.966796875, 24173.142578125, 30126.865234375, 32472.478515625, 33247.59375, 27395.548828125, 0.0, 0.0, 0.0, 193.0, 0.0, 1.0, 1.0, 0.0, 0.0, 1.0, 1.0, 256.0, 1.0, 1.608195813789477E9, 2020-12-17 14:48:33.789
48.0, 36649.83984375, 31973.677734375, 26180.8203125, 24234.966796875, 30166.0703125, 32533.275390625, 33315.36328125, 27461.708984375, 0.0, 0.0, 0.0, 193.0, 0.0, 1.0, 1.0, 0.0, 0.0, 1.0, 1.0, 256.0, 1.0, 1.608195813789479E9, 2020-12-17 14:48:33.789
49.0, 36580.08203125, 31874.79296875, 26078.13671875, 24133.37890625, 30105.25, 32440.3828125, 33231.34375, 27370.91796875, 0.0, 0.0, 0.0, 193.0, 0.0, 1.0, 1.0, 0.0, 0.0, 1.0, 1.0, 256.0, 1.0, 1.60819581378948E9, 2020-12-17 14:48:33.789
50.0, 36473.1953125, 31748.974609375, 25957.392578125, 24016.478515625, 30026.572265625, 32328.064453125, 33134.62890625, 27257.458984375, 0.0, 0.0, 0.0, 193.0, 0.0, 1.0, 1.0, 0.0, 0.0, 1.0, 1.0, 256.0, 1.0, 1.608195813789481E9, 2020-12-17 14:48:33.789
51.0, 36471.02734375, 31753.7578125, 25964.03125, 24020.099609375, 30028.0703125, 32320.107421875, 33123.02734375, 27243.82421875, 0.0, 0.0, 0.0, 193.0, 0.0, 1.0, 1.0, 0.0, 0.0, 1.0, 1.0, 256.0, 1.0, 1.608195813789483E9, 2020-12-17 14:48:33.789
52.0, 36618.81640625, 31927.029296875, 26135.8046875, 24197.283203125, 30152.814453125, 32484.66015625, 33264.58203125, 27388.775390625, 0.0, 0.0, 0.0, 193.0, 0.0, 1.0, 1.0, 0.0, 0.0, 1.0, 1.0, 256.0, 1.0, 1.608195813789492E9, 2020-12-17 14:48:33.789
53.0, 36683.75, 32004.58984375, 26213.41015625, 24290.779296875, 30197.763671875, 32570.6484375, 33342.96875, 27459.02734375, 0.0, 0.0, 0.0, 193.0, 0.0, 1.0, 1.0, 0.0, 0.0, 1.0, 1.0, 256.0, 1.0, 1.608195813789494E9, 2020-12-17 14:48:33.789
54.0, 36596.8671875, 31896.966796875, 26112.357421875, 24191.73828125, 30135.134765625, 32484.884765625, 33280.13671875, 27383.03125, 0.0, 0.0, 0.0, 193.0, 0.0, 1.0, 1.0, 0.0, 0.0, 1.0, 1.0, 256.0, 1.0, 1.608195813789495E9, 2020-12-17 14:48:33.789
55.0, 36478.8515625, 31761.470703125, 25988.216796875, 24067.576171875, 30078.47265625, 32380.658203125, 33188.4296875, 27295.123046875, 0.0, 0.0, 0.0, 193.0, 0.0, 1.0, 1.0, 0.0, 0.0, 1.0, 1.0, 256.0, 1.0, 1.608195813789496E9, 2020-12-17 14:48:33.789
56.0, 36459.5625, 31764.599609375, 25995.078125, 24070.7265625, 30065.978515625, 32394.8515625, 33201.32421875, 27324.068359375, 0.0, 0.0, 0.0, 193.0, 0.0, 1.0, 1.0, 0.0, 0.0, 1.0, 1.0, 256.0, 1.0, 1.608195813789498E9, 2020-12-17 14:48:33.789
57.0, 36583.61328125, 31918.490234375, 26147.29296875, 24230.2734375, 30150.78125, 32550.7109375, 33329.71484375, 27471.34375, 0.0, 0.0, 0.0, 193.0, 0.0, 1.0, 1.0, 0.0, 0.0, 1.0, 1.0, 256.0, 1.0, 1.608195813789499E9, 2020-12-17 14:48:33.789
58.0, 36627.51171875, 31981.90234375, 26204.693359375, 24282.330078125, 30161.263671875, 32585.958984375, 33370.50390625, 27523.78125, 0.0, 0.0, 0.0, 193.0, 0.0, 1.0, 1.0, 0.0, 0.0, 1.0, 1.0, 256.0, 1.0, 1.608195813789501E9, 2020-12-17 14:48:33.789
59.0, 36541.32421875, 31870.3671875, 26087.8828125, 24158.435546875, 30078.80859375, 32463.962890625, 33259.37109375, 27416.044921875, 0.0, 0.0, 0.0, 193.0, 0.0, 1.0, 1.0, 0.0, 0.0, 1.0, 1.0, 256.0, 1.0, 1.608195813789502E9, 2020-12-17 14:48:33.789
60.0, 36437.38671875, 31742.0234375, 25965.283203125, 24031.365234375, 29989.736328125, 32347.578125, 33162.6328125, 27310.43359375, 0.0, 0.0, 0.0, 193.0, 0.0, 1.0, 1.0, 0.0, 0.0, 1.0, 1.0, 256.0, 1.0, 1.608195813789503E9, 2020-12-17 14:48:33.789
61.0, 36420.1328125, 31742.60546875, 25961.974609375, 24019.720703125, 29971.20703125, 32321.359375, 33145.1328125, 27308.689453125, 0.0, 0.0, 0.0, 193.0, 0.0, 1.0, 1.0, 0.0, 0.0, 1.0, 1.0, 256.0, 1.0, 1.608195813789505E9, 2020-12-17 14:48:33.789
62.0, 36544.7421875, 31897.8828125, 26111.28515625, 24170.52734375, 30059.8984375, 32453.814453125, 33253.31640625, 27425.767578125, 0.0, 0.0, 0.0, 193.0, 0.0, 1.0, 1.0, 0.0, 0.0, 1.0, 1.0, 256.0, 1.0, 1.608195813850797E9, 2020-12-17 14:48:33.850
63.0, 36616.87109375, 31967.62109375, 26173.19921875, 24235.90625, 30108.15625, 32504.755859375, 33297.90625, 27473.734375, 0.0, 0.0, 0.0, 193.0, 0.0, 1.0, 1.0, 0.0, 0.0, 1.0, 1.0, 256.0, 1.0, 1.608195813850806E9, 2020-12-17 14:48:33.850
64.0, 36523.2421875, 31851.94921875, 26058.1328125, 24119.341796875, 30038.91015625, 32395.4765625, 33202.421875, 27367.384765625, 0.0, 0.0, 0.0, 193.0, 0.0, 1.0, 1.0, 0.0, 0.0, 1.0, 1.0, 256.0, 1.0, 1.608195813850813E9, 2020-12-17 14:48:33.850
65.0, 36414.96875, 31727.943359375, 25945.412109375, 24005.482421875, 29969.59765625, 32294.849609375, 33116.87890625, 27256.96875, 0.0, 0.0, 0.0, 193.0, 0.0, 1.0, 1.0, 0.0, 0.0, 1.0, 1.0, 256.0, 1.0, 1.60819581385082E9, 2020-12-17 14:48:33.850
66.0, 36424.24609375, 31738.3359375, 25962.130859375, 24026.6484375, 29988.931640625, 32322.052734375, 33126.19921875, 27253.50390625, 0.0, 0.0, 0.0, 193.0, 0.0, 1.0, 1.0, 0.0, 0.0, 1.0, 1.0, 256.0, 1.0, 1.608195813850827E9, 2020-12-17 14:48:33.850
67.0, 36560.703125, 31898.0390625, 26114.50390625, 24180.51953125, 30101.294921875, 32469.998046875, 33241.1328125, 27377.890625, 0.0, 0.0, 0.0, 193.0, 0.0, 1.0, 1.0, 0.0, 0.0, 1.0, 1.0, 256.0, 1.0, 1.608195813850834E9, 2020-12-17 14:48:33.850
68.0, 36632.609375, 31974.728515625, 26187.50390625, 24258.525390625, 30157.552734375, 32543.4453125, 33312.32421875, 27453.595703125, 0.0, 0.0, 0.0, 193.0, 0.0, 1.0, 1.0, 0.0, 0.0, 1.0, 1.0, 256.0, 1.0, 1.608195813850841E9, 2020-12-17 14:48:33.850
69.0, 36550.109375, 31872.333984375, 26087.681640625, 24149.583984375, 30097.650390625, 32456.095703125, 33241.7578125, 27377.734375, 0.0, 0.0, 0.0, 193.0, 0.0, 1.0, 1.0, 0.0, 0.0, 1.0, 1.0, 256.0, 1.0, 1.608195813850848E9, 2020-12-17 14:48:33.850
70.0, 36440.5390625, 31744.125, 25966.802734375, 24022.4921875, 30006.43359375, 32340.87109375, 33148.12890625, 27271.98828125, 0.0, 0.0, 0.0, 193.0, 0.0, 1.0, 1.0, 0.0, 0.0, 1.0, 1.0, 256.0, 1.0, 1.608195813850855E9, 2020-12-17 14:48:33.850
71.0, 36439.35546875, 31754.361328125, 25976.7265625, 24031.34375, 30012.087890625, 32338.927734375, 33137.6015625, 27262.064453125, 0.0, 0.0, 0.0, 193.0, 0.0, 1.0, 1.0, 0.0, 0.0, 1.0, 1.0, 256.0, 1.0, 1.608195813850862E9, 2020-12-17 14:48:33.850
72.0, 36577.64453125, 31923.23046875, 26143.1796875, 24219.03125, 30136.07421875, 32502.296875, 33275.59765625, 27407.6640625, 0.0, 0.0, 0.0, 193.0, 0.0, 1.0, 1.0, 0.0, 0.0, 1.0, 1.0, 256.0, 1.0, 1.608195813850869E9, 2020-12-17 14:48:33.850
73.0, 36651.94140625, 31992.744140625, 26212.939453125, 24310.78515625, 30201.921875, 32603.6171875, 33345.0234375, 27474.96484375, 0.0, 0.0, 0.0, 193.0, 0.0, 1.0, 1.0, 0.0, 0.0, 1.0, 1.0, 256.0, 1.0, 1.608195813850877E9, 2020-12-17 14:48:33.850
74.0, 36560.30078125, 31877.140625, 26101.806640625, 24197.640625, 30133.48046875, 32500.28515625, 33261.83203125, 27391.927734375, 0.0, 0.0, 0.0, 193.0, 0.0, 1.0, 1.0, 0.0, 0.0, 1.0, 1.0, 256.0, 1.0, 1.608195813850884E9, 2020-12-17 14:48:33.850
75.0, 36435.890625, 31747.142578125, 25971.408203125, 24047.771484375, 30021.365234375, 32348.44921875, 33145.6015625, 27271.205078125, 0.0, 0.0, 0.0, 193.0, 0.0, 1.0, 1.0, 0.0, 0.0, 1.0, 1.0, 256.0, 1.0, 1.608195813850891E9, 2020-12-17 14:48:33.850
76.0, 36443.109375, 31761.89453125, 25987.388671875, 24059.505859375, 30025.119140625, 32359.423828125, 33149.9609375, 27263.44921875, 0.0, 0.0, 0.0, 193.0, 0.0, 1.0, 1.0, 0.0, 0.0, 1.0, 1.0, 256.0, 1.0, 1.608195813850914E9, 2020-12-17 14:48:33.850
77.0, 36570.60546875, 31913.171875, 26132.4296875, 24213.599609375, 30122.39453125, 32492.171875, 33249.203125, 27380.974609375, 0.0, 0.0, 0.0, 193.0, 0.0, 1.0, 1.0, 0.0, 0.0, 1.0, 1.0, 256.0, 1.0, 1.608195813911034E9, 2020-12-17 14:48:33.911
78.0, 36626.3046875, 31974.83984375, 26187.9296875, 24275.087890625, 30149.998046875, 32538.439453125, 33297.97265625, 27439.783203125, 0.0, 0.0, 0.0, 193.0, 0.0, 1.0, 1.0, 0.0, 0.0, 1.0, 1.0, 256.0, 1.0, 1.608195813911039E9, 2020-12-17 14:48:33.911
79.0, 36538.88671875, 31863.70703125, 26080.037109375, 24164.4921875, 30080.037109375, 32447.982421875, 33217.5078125, 27354.890625, 0.0, 0.0, 0.0, 193.0, 0.0, 1.0, 1.0, 0.0, 0.0, 1.0, 1.0, 256.0, 1.0, 1.608195813911041E9, 2020-12-17 14:48:33.911
80.0, 36420.84765625, 31732.166015625, 25956.1640625, 24032.482421875, 30000.33203125, 32330.09765625, 33133.0625, 27250.53125, 0.0, 0.0, 0.0, 193.0, 0.0, 1.0, 1.0, 0.0, 0.0, 1.0, 1.0, 256.0, 1.0, 1.608195813911043E9, 2020-12-17 14:48:33.911
81.0, 36434.59375, 31750.181640625, 25977.84375, 24054.0078125, 30026.751953125, 32366.083984375, 33155.90625, 27258.822265625, 0.0, 0.0, 0.0, 193.0, 0.0, 1.0, 1.0, 0.0, 0.0, 1.0, 1.0, 256.0, 1.0, 1.608195813911044E9, 2020-12-17 14:48:33.911
82.0, 36567.87890625, 31911.337890625, 26129.501953125, 24213.509765625, 30139.76171875, 32520.9375, 33253.5625, 27387.45703125, 0.0, 0.0, 0.0, 193.0, 0.0, 1.0, 1.0, 0.0, 0.0, 1.0, 1.0, 256.0, 1.0, 1.608195813911046E9, 2020-12-17 14:48:33.911
83.0, 36630.125, 31978.439453125, 26189.248046875, 24271.22265625, 30173.267578125, 32554.46484375, 33298.64453125, 27442.15234375, 0.0, 0.0, 0.0, 193.0, 0.0, 1.0, 1.0, 0.0, 0.0, 1.0, 1.0, 256.0, 1.0, 1.608195813911048E9, 2020-12-17 14:48:33.911
84.0, 36556.12109375, 31872.736328125, 26084.529296875, 24171.80078125, 30112.76171875, 32463.091796875, 33218.9609375, 27354.734375, 0.0, 0.0, 0.0, 193.0, 0.0, 1.0, 1.0, 0.0, 0.0, 1.0, 1.0, 256.0, 1.0, 1.60819581391105E9, 2020-12-17 14:48:33.911
85.0, 36461.83984375, 31760.330078125, 25981.130859375, 24065.318359375, 30037.16796875, 32367.873046875, 33151.30078125, 27266.265625, 0.0, 0.0, 0.0, 193.0, 0.0, 1.0, 1.0, 0.0, 0.0, 1.0, 1.0, 256.0, 1.0, 1.608195813911052E9, 2020-12-17 14:48:33.911
86.0, 36471.140625, 31769.337890625, 25992.73046875, 24073.7890625, 30052.92578125, 32375.00390625, 33158.9921875, 27271.36328125, 0.0, 0.0, 0.0, 193.0, 0.0, 1.0, 1.0, 0.0, 0.0, 1.0, 1.0, 256.0, 1.0, 1.608195813911054E9, 2020-12-17 14:48:33.911
87.0, 36603.05859375, 31933.220703125, 26152.634765625, 24238.990234375, 30166.44921875, 32533.455078125, 33283.421875, 27401.31640625, 0.0, 0.0, 0.0, 193.0, 0.0, 1.0, 1.0, 0.0, 0.0, 1.0, 1.0, 256.0, 1.0, 1.608195813911056E9, 2020-12-17 14:48:33.911
88.0, 36692.8671875, 32027.455078125, 26243.361328125, 24326.810546875, 30250.828125, 32620.89453125, 33364.984375, 27490.857421875, 0.0, 0.0, 0.0, 193.0, 0.0, 1.0, 1.0, 0.0, 0.0, 1.0, 1.0, 256.0, 1.0, 1.608195813911057E9, 2020-12-17 14:48:33.911
89.0, 36577.46484375, 31893.435546875, 26107.865234375, 24176.5390625, 30138.755859375, 32486.11328125, 33253.29296875, 27379.56640625, 0.0, 0.0, 0.0, 193.0, 0.0, 1.0, 1.0, 0.0, 0.0, 1.0, 1.0, 256.0, 1.0, 1.608195813911059E9, 2020-12-17 14:48:33.911
90.0, 36459.515625, 31744.416015625, 25962.7578125, 24046.4296875, 30038.798828125, 32364.744140625, 33130.46875, 27243.7578125, 0.0, 0.0, 0.0, 193.0, 0.0, 1.0, 1.0, 0.0, 0.0, 1.0, 1.0, 256.0, 1.0, 1.608195813911061E9, 2020-12-17 14:48:33.911
91.0, 36407.30078125, 31715.962890625, 25934.68359375, 24013.23828125, 29998.453125, 32318.69921875, 33097.45703125, 27213.404296875, 0.0, 0.0, 0.0, 193.0, 0.0, 1.0, 1.0, 0.0, 0.0, 1.0, 1.0, 256.0, 1.0, 1.608195813911063E9, 2020-12-17 14:48:33.911
92.0, 36524.5390625, 31875.576171875, 26087.703125, 24159.396484375, 30089.716796875, 32432.021484375, 33212.27734375, 27340.451171875, 0.0, 0.0, 0.0, 193.0, 0.0, 1.0, 1.0, 0.0, 0.0, 1.0, 1.0, 256.0, 1.0, 1.608195813970593E9, 2020-12-17 14:48:33.970
93.0, 36636.02734375, 31990.083984375, 26200.736328125, 24275.55859375, 30168.7734375, 32542.775390625, 33317.375, 27448.74609375, 0.0, 0.0, 0.0, 193.0, 0.0, 1.0, 1.0, 0.0, 0.0, 1.0, 1.0, 256.0, 1.0, 1.608195813970608E9, 2020-12-17 14:48:33.970
94.0, 36525.51953125, 31859.4609375, 26073.33203125, 24146.990234375, 30073.265625, 32434.75, 33219.140625, 27344.095703125, 0.0, 0.0, 0.0, 193.0, 0.0, 1.0, 1.0, 0.0, 0.0, 1.0, 1.0, 256.0, 1.0, 1.608195813970649E9, 2020-12-17 14:48:33.970
95.0, 36416.0859375, 31730.4453125, 25950.173828125, 24018.69140625, 29995.81640625, 32322.6328125, 33129.171875, 27246.75390625, 0.0, 0.0, 0.0, 193.0, 0.0, 1.0, 1.0, 0.0, 0.0, 1.0, 1.0, 256.0, 1.0, 1.608195813970656E9, 2020-12-17 14:48:33.970
96.0, 36410.23046875, 31734.693359375, 25954.083984375, 24018.53515625, 29996.62109375, 32309.7578125, 33125.3515625, 27245.232421875, 0.0, 0.0, 0.0, 193.0, 0.0, 1.0, 1.0, 0.0, 0.0, 1.0, 1.0, 256.0, 1.0, 1.608195813970663E9, 2020-12-17 14:48:33.970
97.0, 36550.98046875, 31900.720703125, 26113.5859375, 24180.876953125, 30112.447265625, 32468.25390625, 33233.69140625, 27365.6640625, 0.0, 0.0, 0.0, 193.0, 0.0, 1.0, 1.0, 0.0, 0.0, 1.0, 1.0, 256.0, 1.0, 1.60819581397067E9, 2020-12-17 14:48:33.970
98.0, 36642.12890625, 31987.916015625, 26199.865234375, 24279.111328125, 30175.501953125, 32563.205078125, 33313.21875, 27448.701171875, 0.0, 0.0, 0.0, 193.0, 0.0, 1.0, 1.0, 0.0, 0.0, 1.0, 1.0, 256.0, 1.0, 1.608195813970677E9, 2020-12-17 14:48:33.970
99.0, 36557.03515625, 31874.48046875, 26089.580078125, 24165.162109375, 30104.53515625, 32459.447265625, 33242.2734375, 27369.978515625, 0.0, 0.0, 0.0, 193.0, 0.0, 1.0, 1.0, 0.0, 0.0, 1.0, 1.0, 256.0, 1.0, 1.6081958139707E9, 2020-12-17 14:48:33.970
100.0, 36444.609375, 31747.634765625, 25967.943359375, 24037.802734375, 30022.9296875, 32347.353515625, 33138.5625, 27257.34765625, 0.0, 0.0, 0.0, 193.0, 0.0, 1.0, 1.0, 0.0, 0.0, 1.0, 1.0, 256.0, 1.0, 1.608195813970707E9, 2020-12-17 14:48:33.970
101.0, 36430.7265625, 31742.337890625, 25965.283203125, 24036.818359375, 30018.078125, 32342.83984375, 33128.61328125, 27235.734375, 0.0, 0.0, 0.0, 193.0, 0.0, 1.0, 1.0, 0.0, 0.0, 1.0, 1.0, 256.0, 1.0, 1.608195813970714E9, 2020-12-17 14:48:33.970
102.0, 36565.08203125, 31910.82421875, 26132.294921875, 24215.677734375, 30139.046875, 32512.7578125, 33257.7421875, 27364.099609375, 0.0, 0.0, 0.0, 193.0, 0.0, 1.0, 1.0, 0.0, 0.0, 1.0, 1.0, 256.0, 1.0, 1.608195813970721E9, 2020-12-17 14:48:33.970
103.0, 36657.28515625, 32009.1953125, 26227.87109375, 24317.087890625, 30211.130859375, 32620.89453125, 33347.953125, 27466.359375, 0.0, 0.0, 0.0, 193.0, 0.0, 1.0, 1.0, 0.0, 0.0, 1.0, 1.0, 256.0, 1.0, 1.608195813970728E9, 2020-12-17 14:48:33.970
104.0, 36541.58984375, 31872.87109375, 26089.8046875, 24169.38671875, 30103.150390625, 32472.634765625, 33236.328125, 27362.69140625, 0.0, 0.0, 0.0, 193.0, 0.0, 1.0, 1.0, 0.0, 0.0, 1.0, 1.0, 256.0, 1.0, 1.608195813970735E9, 2020-12-17 14:48:33.970
105.0, 36425.83203125, 31737.30859375, 25957.728515625, 24031.275390625, 30020.314453125, 32342.2578125, 33126.3125, 27246.88671875, 0.0, 0.0, 0.0, 193.0, 0.0, 1.0, 1.0, 0.0, 0.0, 1.0, 1.0, 256.0, 1.0, 1.608195813970742E9, 2020-12-17 14:48:33.970
106.0, 36426.99609375, 31746.427734375, 25971.005859375, 24044.3515625, 30034.931640625, 32361.525390625, 33127.609375, 27239.556640625, 0.0, 0.0, 0.0, 193.0, 0.0, 1.0, 1.0, 0.0, 0.0, 1.0, 1.0, 256.0, 1.0, 1.608195813970749E9, 2020-12-17 14:48:33.970
107.0, 36571.4296875, 31918.580078125, 26139.537109375, 24218.248046875, 30141.70703125, 32513.896484375, 33263.39453125, 27376.70703125, 0.0, 0.0, 0.0, 193.0, 0.0, 1.0, 1.0, 0.0, 0.0, 1.0, 1.0, 256.0, 1.0, 1.608195814030932E9, 2020-12-17 14:48:34.030
108.0, 36651.16015625, 32006.466796875, 26225.501953125, 24315.61328125, 30199.59765625, 32600.3984375, 33346.36328125, 27463.765625, 0.0, 0.0, 0.0, 193.0, 0.0, 1.0, 1.0, 0.0, 0.0, 1.0, 1.0, 256.0, 1.0, 1.608195814030939E9, 2020-12-17 14:48:34.030
109.0, 36549.48046875, 31877.609375, 26098.857421875, 24182.41796875, 30109.98828125, 32473.23828125, 33251.1015625, 27367.072265625, 0.0, 0.0, 0.0, 193.0, 0.0, 1.0, 1.0, 0.0, 0.0, 1.0, 1.0, 256.0, 1.0, 1.608195814030941E9, 2020-12-17 14:48:34.030
110.0, 36419.39453125, 31738.89453125, 25965.193359375, 24041.490234375, 30011.798828125, 32335.216796875, 33145.82421875, 27252.38671875, 0.0, 0.0, 0.0, 193.0, 0.0, 1.0, 1.0, 0.0, 0.0, 1.0, 1.0, 256.0, 1.0, 1.608195814030943E9, 2020-12-17 14:48:34.030
111.0, 36422.25390625, 31745.64453125, 25969.775390625, 24042.51953125, 30022.7734375, 32336.9375, 33131.07421875, 27248.33984375, 0.0, 0.0, 0.0, 193.0, 0.0, 1.0, 1.0, 0.0, 0.0, 1.0, 1.0, 256.0, 1.0, 1.608195814030944E9, 2020-12-17 14:48:34.030
112.0, 36580.484375, 31919.4296875, 26141.81640625, 24225.556640625, 30144.455078125, 32519.3515625, 33261.2265625, 27385.267578125, 0.0, 0.0, 0.0, 193.0, 0.0, 1.0, 1.0, 0.0, 0.0, 1.0, 1.0, 256.0, 1.0, 1.608195814030946E9, 2020-12-17 14:48:34.030
113.0, 36655.5859375, 32000.142578125, 26221.43359375, 24311.0078125, 30205.677734375, 32612.04296875, 33330.65234375, 27460.8828125, 0.0, 0.0, 0.0, 193.0, 0.0, 1.0, 1.0, 0.0, 0.0, 1.0, 1.0, 256.0, 1.0, 1.608195814030948E9, 2020-12-17 14:48:34.030
114.0, 36551.78515625, 31890.685546875, 26115.28515625, 24203.361328125, 30120.494140625, 32500.015625, 33257.359375, 27369.955078125, 0.0, 0.0, 0.0, 193.0, 0.0, 1.0, 1.0, 0.0, 0.0, 1.0, 1.0, 256.0, 1.0, 1.60819581403095E9, 2020-12-17 14:48:34.030
115.0, 36453.81640625, 31770.455078125, 25997.291015625, 24085.412109375, 30042.62109375, 32379.697265625, 33161.6953125, 27266.66796875, 0.0, 0.0, 0.0, 193.0, 0.0, 1.0, 1.0, 0.0, 0.0, 1.0, 1.0, 256.0, 1.0, 1.608195814030952E9, 2020-12-17 14:48:34.030
116.0, 36444.09375, 31749.578125, 25976.927734375, 24064.9609375, 30043.6484375, 32372.275390625, 33137.578125, 27249.234375, 0.0, 0.0, 0.0, 193.0, 0.0, 1.0, 1.0, 0.0, 0.0, 1.0, 1.0, 256.0, 1.0, 1.608195814030953E9, 2020-12-17 14:48:34.030
117.0, 36560.1640625, 31902.330078125, 26123.48828125, 24217.310546875, 30138.509765625, 32514.208984375, 33250.96875, 27371.85546875, 0.0, 0.0, 0.0, 193.0, 0.0, 1.0, 1.0, 0.0, 0.0, 1.0, 1.0, 256.0, 1.0, 1.608195814030955E9, 2020-12-17 14:48:34.030
118.0, 36649.39453125, 32002.0859375, 26223.646484375, 24322.18359375, 30203.173828125, 32617.384765625, 33351.05859375, 27470.806640625, 0.0, 0.0, 0.0, 193.0, 0.0, 1.0, 1.0, 0.0, 0.0, 1.0, 1.0, 256.0, 1.0, 1.608195814030957E9, 2020-12-17 14:48:34.030
119.0, 36554.35546875, 31894.8203125, 26116.560546875, 24201.841796875, 30120.181640625, 32490.517578125, 33256.37890625, 27381.892578125, 0.0, 0.0, 0.0, 193.0, 0.0, 1.0, 1.0, 0.0, 0.0, 1.0, 1.0, 256.0, 1.0, 1.608195814030959E9, 2020-12-17 14:48:34.030
120.0, 36420.8046875, 31742.248046875, 25965.86328125, 24046.654296875, 30002.87890625, 32331.26171875, 33122.78125, 27247.201171875, 0.0, 0.0, 0.0, 193.0, 0.0, 1.0, 1.0, 0.0, 0.0, 1.0, 1.0, 256.0, 1.0, 1.608195814030961E9, 2020-12-17 14:48:34.030
121.0, 36412.95703125, 31738.671875, 25963.6953125, 24043.7265625, 30002.09765625, 32334.748046875, 33120.76953125, 27242.505859375, 0.0, 0.0, 0.0, 193.0, 0.0, 1.0, 1.0, 0.0, 0.0, 1.0, 1.0, 256.0, 1.0, 1.608195814030963E9, 2020-12-17 14:48:34.030
122.0, 36568.03515625, 31910.935546875, 26134.12890625, 24224.908203125, 30122.818359375, 32504.28515625, 33247.79296875, 27381.064453125, 0.0, 0.0, 0.0, 193.0, 0.0, 1.0, 1.0, 0.0, 0.0, 1.0, 1.0, 256.0, 1.0, 1.608195814090289E9, 2020-12-17 14:48:34.090
123.0, 36663.20703125, 32007.025390625, 26231.513671875, 24339.41796875, 30201.36328125, 32619.330078125, 33331.76953125, 27467.341796875, 0.0, 0.0, 0.0, 193.0, 0.0, 1.0, 1.0, 0.0, 0.0, 1.0, 1.0, 256.0, 1.0, 1.608195814090293E9, 2020-12-17 14:48:34.090
124.0, 36560.8359375, 31887.421875, 26114.705078125, 24221.646484375, 30125.703125, 32513.29296875, 33255.75, 27387.32421875, 0.0, 0.0, 0.0, 193.0, 0.0, 1.0, 1.0, 0.0, 0.0, 1.0, 1.0, 256.0, 1.0, 1.608195814090295E9, 2020-12-17 14:48:34.090
125.0, 36440.09375, 31758.1171875, 25987.076171875, 24091.46875, 30021.654296875, 32365.01171875, 33147.9921875, 27272.255859375, 0.0, 0.0, 0.0, 193.0, 0.0, 1.0, 1.0, 0.0, 0.0, 1.0, 1.0, 256.0, 1.0, 1.608195814090297E9, 2020-12-17 14:48:34.090
126.0, 36422.1875, 31753.1328125, 25976.8828125, 24064.759765625, 30004.556640625, 32344.560546875, 33129.1953125, 27254.12890625, 0.0, 0.0, 0.0, 193.0, 0.0, 1.0, 1.0, 0.0, 0.0, 1.0, 1.0, 256.0, 1.0, 1.608195814090298E9, 2020-12-17 14:48:34.090
127.0, 36565.953125, 31922.626953125, 26148.74609375, 24235.4375, 30121.6796875, 32509.046875, 33269.4765625, 27392.576171875, 0.0, 0.0, 0.0, 193.0, 0.0, 1.0, 1.0, 0.0, 0.0, 1.0, 1.0, 256.0, 1.0, 1.6081958140903E9, 2020-12-17 14:48:34.090
128.0, 36643.13671875, 32007.451171875, 26231.9609375, 24321.333984375, 30167.880859375, 32592.396484375, 33339.03515625, 27466.58203125, 0.0, 0.0, 0.0, 193.0, 0.0, 1.0, 1.0, 0.0, 0.0, 1.0, 1.0, 256.0, 1.0, 1.608195814090302E9, 2020-12-17 14:48:34.090
129.0, 36544.00390625, 31878.75, 26103.259765625, 24189.03515625, 30076.55078125, 32476.14453125, 33241.04296875, 27365.41796875, 0.0, 0.0, 0.0, 193.0, 0.0, 1.0, 1.0, 0.0, 0.0, 1.0, 1.0, 256.0, 1.0, 1.608195814090303E9, 2020-12-17 14:48:34.090
130.0, 36441.14453125, 31747.8359375, 25975.765625, 24060.9140625, 30019.353515625, 32371.91796875, 33144.39453125, 27265.05859375, 0.0, 0.0, 0.0, 193.0, 0.0, 1.0, 1.0, 0.0, 0.0, 1.0, 1.0, 256.0, 1.0, 1.608195814090305E9, 2020-12-17 14:48:34.090
131.0, 36419.796875, 31742.515625, 25972.14453125, 24056.64453125, 30007.595703125, 32350.908203125, 33133.01953125, 27247.0, 0.0, 0.0, 0.0, 193.0, 0.0, 1.0, 1.0, 0.0, 0.0, 1.0, 1.0, 256.0, 1.0, 1.608195814090307E9, 2020-12-17 14:48:34.090
132.0, 36563.80859375, 31919.85546875, 26142.353515625, 24231.705078125, 30118.662109375, 32502.4296875, 33255.08203125, 27383.076171875, 0.0, 0.0, 0.0, 193.0, 0.0, 1.0, 1.0, 0.0, 0.0, 1.0, 1.0, 256.0, 1.0, 1.608195814090308E9, 2020-12-17 14:48:34.090
133.0, 36648.9453125, 32011.474609375, 26228.609375, 24329.89453125, 30176.060546875, 32585.087890625, 33330.00390625, 27470.5390625, 0.0, 0.0, 0.0, 193.0, 0.0, 1.0, 1.0, 0.0, 0.0, 1.0, 1.0, 256.0, 1.0, 1.60819581409031E9, 2020-12-17 14:48:34.090
134.0, 36544.6328125, 31885.8125, 26105.96484375, 24195.47265625, 30085.939453125, 32470.265625, 33236.4609375, 27378.115234375, 0.0, 0.0, 0.0, 193.0, 0.0, 1.0, 1.0, 0.0, 0.0, 1.0, 1.0, 256.0, 1.0, 1.608195814090312E9, 2020-12-17 14:48:34.090
135.0, 36442.796875, 31750.62890625, 25977.888671875, 24068.916015625, 30015.10546875, 32352.8515625, 33130.515625, 27262.287109375, 0.0, 0.0, 0.0, 193.0, 0.0, 1.0, 1.0, 0.0, 0.0, 1.0, 1.0, 256.0, 1.0, 1.608195814090314E9, 2020-12-17 14:48:34.090
136.0, 36427.328125, 31734.89453125, 25966.244140625, 24069.1171875, 30008.6015625, 32349.03125, 33119.046875, 27237.07421875, 0.0, 0.0, 0.0, 193.0, 0.0, 1.0, 1.0, 0.0, 0.0, 1.0, 1.0, 256.0, 1.0, 1.608195814090315E9, 2020-12-17 14:48:34.090
137.0, 36549.63671875, 31904.498046875, 26131.490234375, 24237.203125, 30099.818359375, 32490.673828125, 33239.34375, 27370.73828125, 0.0, 0.0, 0.0, 193.0, 0.0, 1.0, 1.0, 0.0, 0.0, 1.0, 1.0, 256.0, 1.0, 1.60819581415019E9, 2020-12-17 14:48:34.150
138.0, 36639.1796875, 32004.43359375, 26227.78125, 24333.091796875, 30166.158203125, 32580.37109375, 33324.34765625, 27466.91796875, 0.0, 0.0, 0.0, 193.0, 0.0, 1.0, 1.0, 0.0, 0.0, 1.0, 1.0, 256.0, 1.0, 1.608195814150198E9, 2020-12-17 14:48:34.150
139.0, 36551.203125, 31883.509765625, 26111.396484375, 24216.505859375, 30100.333984375, 32497.244140625, 33251.3046875, 27380.572265625, 0.0, 0.0, 0.0, 193.0, 0.0, 1.0, 1.0, 0.0, 0.0, 1.0, 1.0, 256.0, 1.0, 1.608195814150201E9, 2020-12-17 14:48:34.150
140.0, 36437.76953125, 31747.634765625, 25981.46484375, 24088.318359375, 30009.31640625, 32364.51953125, 33147.16796875, 27261.259765625, 0.0, 0.0, 0.0, 193.0, 0.0, 1.0, 1.0, 0.0, 0.0, 1.0, 1.0, 256.0, 1.0, 1.608195814150204E9, 2020-12-17 14:48:34.150
141.0, 36431.46484375, 31744.59375, 25976.705078125, 24079.9140625, 30002.23046875, 32340.783203125, 33124.078125, 27243.82421875, 0.0, 0.0, 0.0, 193.0, 0.0, 1.0, 1.0, 0.0, 0.0, 1.0, 1.0, 256.0, 1.0, 1.608195814150207E9, 2020-12-17 14:48:34.150
142.0, 36582.67578125, 31924.369140625, 26154.2890625, 24265.923828125, 30116.0234375, 32509.873046875, 33253.046875, 27377.48828125, 0.0, 0.0, 0.0, 193.0, 0.0, 1.0, 1.0, 0.0, 0.0, 1.0, 1.0, 256.0, 1.0, 1.60819581415021E9, 2020-12-17 14:48:34.150
143.0, 36650.01953125, 32009.955078125, 26236.09765625, 24346.81640625, 30179.056640625, 32607.9296875, 33334.78515625, 27463.833984375, 0.0, 0.0, 0.0, 193.0, 0.0, 1.0, 1.0, 0.0, 0.0, 1.0, 1.0, 256.0, 1.0, 1.608195814150212E9, 2020-12-17 14:48:34.150
144.0, 36546.9765625, 31892.09375, 26120.26953125, 24224.10546875, 30098.8125, 32494.138671875, 33256.4453125, 27379.767578125, 0.0, 0.0, 0.0, 193.0, 0.0, 1.0, 1.0, 0.0, 0.0, 1.0, 1.0, 256.0, 1.0, 1.608195814150215E9, 2020-12-17 14:48:34.150
145.0, 36430.52734375, 31756.44140625, 25988.529296875, 24086.640625, 30016.22265625, 32360.810546875, 33151.83984375, 27273.375, 0.0, 0.0, 0.0, 193.0, 0.0, 1.0, 1.0, 0.0, 0.0, 1.0, 1.0, 256.0, 1.0, 1.608195814150226E9, 2020-12-17 14:48:34.150
146.0, 36425.8984375, 31744.125, 25976.525390625, 24078.662109375, 30014.703125, 32349.56640625, 33132.75, 27253.279296875, 0.0, 0.0, 0.0, 193.0, 0.0, 1.0, 1.0, 0.0, 0.0, 1.0, 1.0, 256.0, 1.0, 1.608195814150229E9, 2020-12-17 14:48:34.150
147.0, 36565.53125, 31912.2109375, 26138.8671875, 24246.1875, 30120.740234375, 32510.701171875, 33255.73046875, 27384.595703125, 0.0, 0.0, 0.0, 193.0, 0.0, 1.0, 1.0, 0.0, 0.0, 1.0, 1.0, 256.0, 1.0, 1.608195814150232E9, 2020-12-17 14:48:34.150
148.0, 36635.37890625, 32007.541015625, 26232.833984375, 24340.802734375, 30154.46875, 32581.197265625, 33334.33984375, 27468.68359375, 0.0, 0.0, 0.0, 193.0, 0.0, 1.0, 1.0, 0.0, 0.0, 1.0, 1.0, 256.0, 1.0, 1.608195814150235E9, 2020-12-17 14:48:34.150
149.0, 36565.55078125, 31907.875, 26135.982421875, 24236.64453125, 30099.841796875, 32495.58984375, 33269.33984375, 27392.375, 0.0, 0.0, 0.0, 193.0, 0.0, 1.0, 1.0, 0.0, 0.0, 1.0, 1.0, 256.0, 1.0, 1.608195814150238E9, 2020-12-17 14:48:34.150
150.0, 36448.40625, 31767.392578125, 25999.771484375, 24095.470703125, 30018.99609375, 32377.4609375, 33162.5234375, 27272.5703125, 0.0, 0.0, 0.0, 193.0, 0.0, 1.0, 1.0, 0.0, 0.0, 1.0, 1.0, 256.0, 1.0, 1.608195814150241E9, 2020-12-17 14:48:34.150
151.0, 36434.1484375, 31747.947265625, 25983.58984375, 24086.037109375, 30010.994140625, 32366.888671875, 33133.26171875, 27245.12109375, 0.0, 0.0, 0.0, 193.0, 0.0, 1.0, 1.0, 0.0, 0.0, 1.0, 1.0, 256.0, 1.0, 1.608195814150244E9, 2020-12-17 14:48:34.150
152.0, 36565.0625, 31911.494140625, 26145.7734375, 24257.20703125, 30119.779296875, 32517.875, 33262.76953125, 27381.6015625, 0.0, 0.0, 0.0, 193.0, 0.0, 1.0, 1.0, 0.0, 0.0, 1.0, 1.0, 256.0, 1.0, 1.608195814210391E9, 2020-12-17 14:48:34.210
153.0, 36665.59765625, 32017.576171875, 26245.908203125, 24360.40625, 30195.306640625, 32612.22265625, 33344.28515625, 27482.4296875, 0.0, 0.0, 0.0, 193.0, 0.0, 1.0, 1.0, 0.0, 0.0, 1.0, 1.0, 256.0, 1.0, 1.608195814210398E9, 2020-12-17 14:48:34.210
154.0, 36557.796875, 31886.169921875, 26120.716796875, 24231.2578125, 30104.580078125, 32507.705078125, 33248.015625, 27370.26953125, 0.0, 0.0, 0.0, 193.0, 0.0, 1.0, 1.0, 0.0, 0.0, 1.0, 1.0, 256.0, 1.0, 1.6081958142104E9, 2020-12-17 14:48:34.210
155.0, 36461.19140625, 31771.126953125, 26007.70703125, 24114.3125, 30028.29296875, 32386.42578125, 33157.58203125, 27263.8515625, 0.0, 0.0, 0.0, 193.0, 0.0, 1.0, 1.0, 0.0, 0.0, 1.0, 1.0, 256.0, 1.0, 1.608195814210403E9, 2020-12-17 14:48:34.210
156.0, 36437.09765625, 31751.568359375, 25989.1328125, 24091.447265625, 30016.849609375, 32360.33984375, 33136.1484375, 27241.5, 0.0, 0.0, 0.0, 193.0, 0.0, 1.0, 1.0, 0.0, 0.0, 1.0, 1.0, 256.0, 1.0, 1.608195814210405E9, 2020-12-17 14:48:34.210
157.0, 36570.15625, 31917.865234375, 26153.57421875, 24267.646484375, 30124.361328125, 32513.025390625, 33262.92578125, 27373.041015625, 0.0, 0.0, 0.0, 193.0, 0.0, 1.0, 1.0, 0.0, 0.0, 1.0, 1.0, 256.0, 1.0, 1.608195814210408E9, 2020-12-17 14:48:34.210
158.0, 36670.8984375, 32027.947265625, 26261.7109375, 24385.41796875, 30196.71484375, 32612.9375, 33357.1171875, 27466.26953125, 0.0, 0.0, 0.0, 193.0, 0.0, 1.0, 1.0, 0.0, 0.0, 1.0, 1.0, 256.0, 1.0, 1.60819581421041E9, 2020-12-17 14:48:34.210
159.0, 36574.62890625, 31909.439453125, 26145.9296875, 24251.59765625, 30123.466796875, 32522.748046875, 33283.3984375, 27387.279296875, 0.0, 0.0, 0.0, 193.0, 0.0, 1.0, 1.0, 0.0, 0.0, 1.0, 1.0, 256.0, 1.0, 1.608195814210412E9, 2020-12-17 14:48:34.210
160.0, 36445.8828125, 31759.2578125, 25997.916015625, 24098.576171875, 30027.98046875, 32379.630859375, 33155.34765625, 27255.962890625, 0.0, 0.0, 0.0, 193.0, 0.0, 1.0, 1.0, 0.0, 0.0, 1.0, 1.0, 256.0, 1.0, 1.608195814210415E9, 2020-12-17 14:48:34.210
161.0, 36435.6015625, 31746.986328125, 25986.271484375, 24089.14453125, 30019.28515625, 32365.236328125, 33134.6484375, 27233.990234375, 0.0, 0.0, 0.0, 193.0, 0.0, 1.0, 1.0, 0.0, 0.0, 1.0, 1.0, 256.0, 1.0, 1.608195814210417E9, 2020-12-17 14:48:34.210
162.0, 36574.0703125, 31922.916015625, 26160.48046875, 24270.126953125, 30131.0, 32529.296875, 33269.07421875, 27369.396484375, 0.0, 0.0, 0.0, 193.0, 0.0, 1.0, 1.0, 0.0, 0.0, 1.0, 1.0, 256.0, 1.0, 1.608195814210419E9, 2020-12-17 14:48:34.210
163.0, 36665.7109375, 32034.876953125, 26270.7421875, 24396.771484375, 30198.166015625, 32614.79296875, 33356.7578125, 27461.978515625, 0.0, 0.0, 0.0, 193.0, 0.0, 1.0, 1.0, 0.0, 0.0, 1.0, 1.0, 256.0, 1.0, 1.608195814210422E9, 2020-12-17 14:48:34.210
164.0, 36567.765625, 31920.7265625, 26154.04296875, 24265.90234375, 30115.755859375, 32510.0078125, 33280.91796875, 27379.1875, 0.0, 0.0, 0.0, 193.0, 0.0, 1.0, 1.0, 0.0, 0.0, 1.0, 1.0, 256.0, 1.0, 1.608195814210424E9, 2020-12-17 14:48:34.210
165.0, 36458.82421875, 31789.923828125, 26024.447265625, 24139.033203125, 30034.88671875, 32384.01171875, 33179.734375, 27267.0703125, 0.0, 0.0, 0.0, 193.0, 0.0, 1.0, 1.0, 0.0, 0.0, 1.0, 1.0, 256.0, 1.0, 1.608195814210426E9, 2020-12-17 14:48:34.210
166.0, 36439.6015625, 31766.142578125, 26007.28125, 24121.80078125, 30033.61328125, 32383.609375, 33152.0625, 27251.939453125, 0.0, 0.0, 0.0, 193.0, 0.0, 1.0, 1.0, 0.0, 0.0, 1.0, 1.0, 256.0, 1.0, 1.608195814210429E9, 2020-12-17 14:48:34.210
167.0, 36584.75390625, 31930.046875, 26167.7890625, 24278.59765625, 30138.845703125, 32539.958984375, 33268.69140625, 27380.439453125, 0.0, 0.0, 0.0, 193.0, 0.0, 1.0, 1.0, 0.0, 0.0, 1.0, 1.0, 256.0, 1.0, 1.608195814270682E9, 2020-12-17 14:48:34.270
168.0, 36685.6484375, 32030.115234375, 26265.935546875, 24388.904296875, 30206.927734375, 32641.8828125, 33350.5, 27462.26953125, 0.0, 0.0, 0.0, 193.0, 0.0, 1.0, 1.0, 0.0, 0.0, 1.0, 1.0, 256.0, 1.0, 1.608195814270689E9, 2020-12-17 14:48:34.270
169.0, 36587.30078125, 31906.890625, 26151.294921875, 24274.44140625, 30131.134765625, 32545.8828125, 33283.4453125, 27379.43359375, 0.0, 0.0, 0.0, 193.0, 0.0, 1.0, 1.0, 0.0, 0.0, 1.0, 1.0, 256.0, 1.0, 1.608195814270699E9, 2020-12-17 14:48:34.270
170.0, 36454.30859375, 31758.095703125, 26005.314453125, 24123.74609375, 30031.802734375, 32398.091796875, 33170.078125, 27253.99609375, 0.0, 0.0, 0.0, 193.0, 0.0, 1.0, 1.0, 0.0, 0.0, 1.0, 1.0, 256.0, 1.0, 1.608195814270701E9, 2020-12-17 14:48:34.270
171.0, 36432.42578125, 31741.689453125, 25988.41796875, 24110.625, 30020.91796875, 32362.6640625, 33134.29296875, 27219.640625, 0.0, 0.0, 0.0, 193.0, 0.0, 1.0, 1.0, 0.0, 0.0, 1.0, 1.0, 256.0, 1.0, 1.608195814270703E9, 2020-12-17 14:48:34.270
172.0, 36579.25390625, 31914.021484375, 26157.9765625, 24289.326171875, 30138.62109375, 32519.640625, 33267.6640625, 27361.640625, 0.0, 0.0, 0.0, 193.0, 0.0, 1.0, 1.0, 0.0, 0.0, 1.0, 1.0, 256.0, 1.0, 1.608195814270706E9, 2020-12-17 14:48:34.270
173.0, 36677.51171875, 32014.3125, 26253.59765625, 24380.701171875, 30217.009765625, 32624.8515625, 33356.4453125, 27462.693359375, 0.0, 0.0, 0.0, 193.0, 0.0, 1.0, 1.0, 0.0, 0.0, 1.0, 1.0, 256.0, 1.0, 1.608195814270708E9, 2020-12-17 14:48:34.270
174.0, 36576.2578125, 31883.48828125, 26125.92578125, 24248.423828125, 30132.900390625, 32508.666015625, 33259.05859375, 27366.6484375, 0.0, 0.0, 0.0, 193.0, 0.0, 1.0, 1.0, 0.0, 0.0, 1.0, 1.0, 256.0, 1.0, 1.60819581427071E9, 2020-12-17 14:48:34.270
175.0, 36451.22265625, 31733.84375, 25982.740234375, 24099.60546875, 30027.19921875, 32376.544921875, 33151.34765625, 27240.5625, 0.0, 0.0, 0.0, 193.0, 0.0, 1.0, 1.0, 0.0, 0.0, 1.0, 1.0, 256.0, 1.0, 1.608195814270713E9, 2020-12-17 14:48:34.270
176.0, 36452.4765625, 31730.9609375, 25991.5234375, 24115.876953125, 30047.962890625, 32404.462890625, 33165.94140625, 27241.568359375, 0.0, 0.0, 0.0, 193.0, 0.0, 1.0, 1.0, 0.0, 0.0, 1.0, 1.0, 256.0, 1.0, 1.608195814270715E9, 2020-12-17 14:48:34.270
177.0, 36582.67578125, 31892.18359375, 26151.96484375, 24299.810546875, 30156.48046875, 32552.296875, 33280.91796875, 27366.447265625, 0.0, 0.0, 0.0, 193.0, 0.0, 1.0, 1.0, 0.0, 0.0, 1.0, 1.0, 256.0, 1.0, 1.608195814270718E9, 2020-12-17 14:48:34.270
178.0, 36663.09765625, 31990.576171875, 26246.400390625, 24400.974609375, 30214.595703125, 32622.056640625, 33359.62109375, 27451.40625, 0.0, 0.0, 0.0, 193.0, 0.0, 1.0, 1.0, 0.0, 0.0, 1.0, 1.0, 256.0, 1.0, 1.60819581427072E9, 2020-12-17 14:48:34.270
179.0, 36581.78125, 31872.9375, 26128.427734375, 24264.2265625, 30151.853515625, 32528.716796875, 33280.31640625, 27373.8671875, 0.0, 0.0, 0.0, 193.0, 0.0, 1.0, 1.0, 0.0, 0.0, 1.0, 1.0, 256.0, 1.0, 1.608195814270722E9, 2020-12-17 14:48:34.270
180.0, 36471.40625, 31729.841796875, 25990.271484375, 24128.416015625, 30064.123046875, 32398.830078125, 33163.05859375, 27256.140625, 0.0, 0.0, 0.0, 193.0, 0.0, 1.0, 1.0, 0.0, 0.0, 1.0, 1.0, 256.0, 1.0, 1.608195814270725E9, 2020-12-17 14:48:34.270
181.0, 36434.59375, 31700.96484375, 25962.845703125, 24102.9140625, 30044.521484375, 32357.748046875, 33129.28515625, 27215.70703125, 0.0, 0.0, 0.0, 193.0, 0.0, 1.0, 1.0, 0.0, 0.0, 1.0, 1.0, 256.0, 1.0, 1.608195814270727E9, 2020-12-17 14:48:34.270
182.0, 36578.203125, 31874.748046875, 26144.41015625, 24296.076171875, 30162.94140625, 32541.814453125, 33274.16796875, 27350.935546875, 0.0, 0.0, 0.0, 193.0, 0.0, 1.0, 1.0, 0.0, 0.0, 1.0, 1.0, 256.0, 1.0, 1.608195814330865E9, 2020-12-17 14:48:34.330
183.0, 36681.4453125, 31980.2265625, 26247.517578125, 24399.41015625, 30238.935546875, 32661.240234375, 33379.35546875, 27461.240234375, 0.0, 0.0, 0.0, 193.0, 0.0, 1.0, 1.0, 0.0, 0.0, 1.0, 1.0, 256.0, 1.0, 1.608195814330873E9, 2020-12-17 14:48:34.330
184.0, 36577.69140625, 31851.837890625, 26112.939453125, 24264.13671875, 30141.392578125, 32520.46875, 33262.0546875, 27347.380859375, 0.0, 0.0, 0.0, 193.0, 0.0, 1.0, 1.0, 0.0, 0.0, 1.0, 1.0, 256.0, 1.0, 1.608195814330875E9, 2020-12-17 14:48:34.330
185.0, 36458.35546875, 31705.76953125, 25971.65234375, 24112.79296875, 30043.001953125, 32365.97265625, 33141.578125, 27226.16796875, 0.0, 0.0, 0.0, 193.0, 0.0, 1.0, 1.0, 0.0, 0.0, 1.0, 1.0, 256.0, 1.0, 1.608195814330878E9, 2020-12-17 14:48:34.330
186.0, 36438.68359375, 31678.298828125, 25954.263671875, 24098.375, 30035.84765625, 32359.69140625, 33128.8828125, 27202.720703125, 0.0, 0.0, 0.0, 193.0, 0.0, 1.0, 1.0, 0.0, 0.0, 1.0, 1.0, 256.0, 1.0, 1.60819581433088E9, 2020-12-17 14:48:34.330
187.0, 36572.50390625, 31836.505859375, 26113.787109375, 24267.646484375, 30152.970703125, 32533.029296875, 33258.703125, 27326.302734375, 0.0, 0.0, 0.0, 193.0, 0.0, 1.0, 1.0, 0.0, 0.0, 1.0, 1.0, 256.0, 1.0, 1.608195814330882E9, 2020-12-17 14:48:34.330
188.0, 36670.0703125, 31950.1640625, 26223.7578125, 24387.541015625, 30231.44921875, 32657.865234375, 33365.4296875, 27432.80859375, 0.0, 0.0, 0.0, 193.0, 0.0, 1.0, 1.0, 0.0, 0.0, 1.0, 1.0, 256.0, 1.0, 1.608195814330885E9, 2020-12-17 14:48:34.330
189.0, 36595.52734375, 31859.302734375, 26133.994140625, 24300.32421875, 30161.978515625, 32553.771484375, 33288.69921875, 27359.31640625, 0.0, 0.0, 0.0, 193.0, 0.0, 1.0, 1.0, 0.0, 0.0, 1.0, 1.0, 256.0, 1.0, 1.608195814330887E9, 2020-12-17 14:48:34.330
190.0, 36470.58203125, 31705.92578125, 25977.732421875, 24120.236328125, 30063.072265625, 32399.166015625, 33157.40234375, 27232.359375, 0.0, 0.0, 0.0, 193.0, 0.0, 1.0, 1.0, 0.0, 0.0, 1.0, 1.0, 256.0, 1.0, 1.608195814330889E9, 2020-12-17 14:48:34.330
191.0, 36442.640625, 31670.3203125, 25943.869140625, 24088.451171875, 30043.380859375, 32355.1328125, 33117.6171875, 27187.677734375, 0.0, 0.0, 0.0, 193.0, 0.0, 1.0, 1.0, 0.0, 0.0, 1.0, 1.0, 256.0, 1.0, 1.608195814330892E9, 2020-12-17 14:48:34.330
192.0, 36587.48046875, 31832.81640625, 26109.921875, 24265.478515625, 30160.548828125, 32524.759765625, 33250.1875, 27323.0625, 0.0, 0.0, 0.0, 193.0, 0.0, 1.0, 1.0, 0.0, 0.0, 1.0, 1.0, 256.0, 1.0, 1.608195814330902E9, 2020-12-17 14:48:34.330
193.0, 36685.515625, 31952.8671875, 26228.943359375, 24387.115234375, 30245.060546875, 32645.302734375, 33354.25390625, 27432.40625, 0.0, 0.0, 0.0, 193.0, 0.0, 1.0, 1.0, 0.0, 0.0, 1.0, 1.0, 256.0, 1.0, 1.608195814330904E9, 2020-12-17 14:48:34.330
194.0, 36590.83203125, 31843.703125, 26125.03125, 24293.3046875, 30180.7109375, 32556.72265625, 33284.51953125, 27350.173828125, 0.0, 0.0, 0.0, 193.0, 0.0, 1.0, 1.0, 0.0, 0.0, 1.0, 1.0, 256.0, 1.0, 1.608195814330906E9, 2020-12-17 14:48:34.330
195.0, 36475.67578125, 31706.08203125, 25986.205078125, 24156.2890625, 30082.072265625, 32403.634765625, 33160.890625, 27226.904296875, 0.0, 0.0, 0.0, 193.0, 0.0, 1.0, 1.0, 0.0, 0.0, 1.0, 1.0, 256.0, 1.0, 1.608195814330909E9, 2020-12-17 14:48:34.330
196.0, 36456.1171875, 31673.583984375, 25956.140625, 24111.943359375, 30066.873046875, 32375.986328125, 33133.75390625, 27194.115234375, 0.0, 0.0, 0.0, 193.0, 0.0, 1.0, 1.0, 0.0, 0.0, 1.0, 1.0, 256.0, 1.0, 1.608195814330911E9, 2020-12-17 14:48:34.330
197.0, 36588.8203125, 31824.009765625, 26109.2734375, 24266.818359375, 30187.21484375, 32564.947265625, 33266.6796875, 27316.06640625, 0.0, 0.0, 0.0, 193.0, 0.0, 1.0, 1.0, 0.0, 0.0, 1.0, 1.0, 256.0, 1.0, 1.608195814390362E9, 2020-12-17 14:48:34.390
198.0, 36679.74609375, 31945.380859375, 26225.322265625, 24390.111328125, 30241.998046875, 32644.833984375, 33356.7578125, 27415.173828125, 0.0, 0.0, 0.0, 193.0, 0.0, 1.0, 1.0, 0.0, 0.0, 1.0, 1.0, 256.0, 1.0, 1.608195814390369E9, 2020-12-17 14:48:34.390
199.0, 36599.59375, 31846.5625, 26126.484375, 24290.779296875, 30175.970703125, 32527.59765625, 33278.4375, 27339.513671875, 0.0, 0.0, 0.0, 193.0, 0.0, 1.0, 1.0, 0.0, 0.0, 1.0, 1.0, 256.0, 1.0, 1.608195814390371E9, 2020-12-17 14:48:34.390
200.0, 36487.8359375, 31706.9765625, 25991.099609375, 24151.931640625, 30095.572265625, 32403.501953125, 33162.6328125, 27216.310546875, 0.0, 0.0, 0.0, 193.0, 0.0, 1.0, 1.0, 0.0, 0.0, 1.0, 1.0, 256.0, 1.0, 1.608195814390374E9, 2020-12-17 14:48:34.390
201.0, 36452.69921875, 31668.93359375, 25955.4921875, 24104.3671875, 30073.33203125, 32394.6953125, 33133.84375, 27178.78125, 0.0, 0.0, 0.0, 193.0, 0.0, 1.0, 1.0, 0.0, 0.0, 1.0, 1.0, 256.0, 1.0, 1.608195814390376E9, 2020-12-17 14:48:34.390
202.0, 36584.73046875, 31828.189453125, 26115.5546875, 24277.01171875, 30177.759765625, 32550.486328125, 33267.23828125, 27311.484375, 0.0, 0.0, 0.0, 193.0, 0.0, 1.0, 1.0, 0.0, 0.0, 1.0, 1.0, 256.0, 1.0, 1.608195814390378E9, 2020-12-17 14:48:34.390
203.0, 36690.1171875, 31943.681640625, 26227.044921875, 24396.90625, 30258.314453125, 32663.2734375, 33368.26953125, 27412.46875, 0.0, 0.0, 0.0, 193.0, 0.0, 1.0, 1.0, 0.0, 0.0, 1.0, 1.0, 256.0, 1.0, 1.608195814390381E9, 2020-12-17 14:48:34.390
204.0, 36616.9375, 31852.552734375, 26138.46484375, 24312.974609375, 30199.41796875, 32580.4375, 33291.8046875, 27341.279296875, 0.0, 0.0, 0.0, 193.0, 0.0, 1.0, 1.0, 0.0, 0.0, 1.0, 1.0, 256.0, 1.0, 1.608195814390383E9, 2020-12-17 14:48:34.390
205.0, 36485.421875, 31707.423828125, 25991.724609375, 24153.71875, 30078.541015625, 32403.8359375, 33158.6328125, 27211.125, 0.0, 0.0, 0.0, 193.0, 0.0, 1.0, 1.0, 0.0, 0.0, 1.0, 1.0, 256.0, 1.0, 1.608195814390385E9, 2020-12-17 14:48:34.390
206.0, 36450.73046875, 31664.216796875, 25948.384765625, 24098.509765625, 30054.78125, 32371.2265625, 33126.2890625, 27173.751953125, 0.0, 0.0, 0.0, 193.0, 0.0, 1.0, 1.0, 0.0, 0.0, 1.0, 1.0, 256.0, 1.0, 1.608195814390388E9, 2020-12-17 14:48:34.390
207.0, 36572.90625, 31825.888671875, 26106.388671875, 24262.125, 30168.349609375, 32529.185546875, 33249.4921875, 27295.45703125, 0.0, 0.0, 0.0, 193.0, 0.0, 1.0, 1.0, 0.0, 0.0, 1.0, 1.0, 256.0, 1.0, 1.60819581439039E9, 2020-12-17 14:48:34.390
208.0, 36673.22265625, 31940.10546875, 26221.904296875, 24381.908203125, 30239.96484375, 32639.111328125, 33349.1796875, 27398.9453125, 0.0, 0.0, 0.0, 193.0, 0.0, 1.0, 1.0, 0.0, 0.0, 1.0, 1.0, 256.0, 1.0, 1.608195814390392E9, 2020-12-17 14:48:34.390
209.0, 36607.171875, 31842.94140625, 26127.35546875, 24284.07421875, 30185.0234375, 32550.93359375, 33283.19921875, 27331.623046875, 0.0, 0.0, 0.0, 193.0, 0.0, 1.0, 1.0, 0.0, 0.0, 1.0, 1.0, 256.0, 1.0, 1.608195814390395E9, 2020-12-17 14:48:34.390
210.0, 36486.00390625, 31707.55859375, 25994.02734375, 24161.541015625, 30090.923828125, 32421.740234375, 33172.265625, 27220.53515625, 0.0, 0.0, 0.0, 193.0, 0.0, 1.0, 1.0, 0.0, 0.0, 1.0, 1.0, 256.0, 1.0, 1.608195814390397E9, 2020-12-17 14:48:34.390
211.0, 36447.265625, 31668.46484375, 25951.669921875, 24117.5546875, 30053.88671875, 32364.408203125, 33117.41796875, 27170.109375, 0.0, 0.0, 0.0, 193.0, 0.0, 1.0, 1.0, 0.0, 0.0, 1.0, 1.0, 256.0, 1.0, 1.6081958143904E9, 2020-12-17 14:48:34.390
212.0, 36583.5234375, 31828.748046875, 26111.84375, 24270.73046875, 30180.0390625, 32537.6796875, 33261.02734375, 27310.611328125, 0.0, 0.0, 0.0, 193.0, 0.0, 1.0, 1.0, 0.0, 0.0, 1.0, 1.0, 256.0, 1.0, 1.608195814449998E9, 2020-12-17 14:48:34.449
213.0, 36675.65625, 31939.501953125, 26223.19921875, 24398.1796875, 30243.67578125, 32640.787109375, 33358.16796875, 27411.41796875, 0.0, 0.0, 0.0, 193.0, 0.0, 1.0, 1.0, 0.0, 0.0, 1.0, 1.0, 256.0, 1.0, 1.608195814450008E9, 2020-12-17 14:48:34.450
214.0, 36587.81640625, 31830.849609375, 26109.607421875, 24264.248046875, 30159.251953125, 32521.474609375, 33267.95703125, 27325.005859375, 0.0, 0.0, 0.0, 193.0, 0.0, 1.0, 1.0, 0.0, 0.0, 1.0, 1.0, 256.0, 1.0, 1.608195814450012E9, 2020-12-17 14:48:34.450
215.0, 36482.08984375, 31704.541015625, 25989.9140625, 24149.44921875, 30071.90234375, 32406.20703125, 33163.19140625, 27208.84375, 0.0, 0.0, 0.0, 193.0, 0.0, 1.0, 1.0, 0.0, 0.0, 1.0, 1.0, 256.0, 1.0, 1.608195814450027E9, 2020-12-17 14:48:34.450
216.0, 36456.609375, 31680.04296875, 25972.078125, 24132.552734375, 30068.392578125, 32410.630859375, 33149.24609375, 27177.396484375, 0.0, 0.0, 0.0, 193.0, 0.0, 1.0, 1.0, 0.0, 0.0, 1.0, 1.0, 256.0, 1.0, 1.608195814450031E9, 2020-12-17 14:48:34.450
217.0, 36575.27734375, 31825.216796875, 26108.333984375, 24269.947265625, 30162.248046875, 32514.5, 33252.44140625, 27302.677734375, 0.0, 0.0, 0.0, 193.0, 0.0, 1.0, 1.0, 0.0, 0.0, 1.0, 1.0, 256.0, 1.0, 1.608195814450035E9, 2020-12-17 14:48:34.450
218.0, 36671.5234375, 31933.310546875, 26213.09765625, 24384.544921875, 30231.046875, 32607.416015625, 33338.5625, 27400.421875, 0.0, 0.0, 0.0, 193.0, 0.0, 1.0, 1.0, 0.0, 0.0, 1.0, 1.0, 256.0, 1.0, 1.608195814450039E9, 2020-12-17 14:48:34.450
219.0, 36595.83984375, 31828.345703125, 26109.720703125, 24278.0625, 30159.521484375, 32534.103515625, 33257.98828125, 27311.126953125, 0.0, 0.0, 0.0, 193.0, 0.0, 1.0, 1.0, 0.0, 0.0, 1.0, 1.0, 256.0, 1.0, 1.608195814450043E9, 2020-12-17 14:48:34.450
220.0, 36472.30078125, 31690.146484375, 25974.939453125, 24129.421875, 30060.994140625, 32398.091796875, 33138.2265625, 27184.123046875, 0.0, 0.0, 0.0, 193.0, 0.0, 1.0, 1.0, 0.0, 0.0, 1.0, 1.0, 256.0, 1.0, 1.608195814450047E9, 2020-12-17 14:48:34.450
221.0, 36450.7109375, 31670.095703125, 25958.8671875, 24111.1171875, 30054.51171875, 32374.33203125, 33135.1171875, 27169.05859375, 0.0, 0.0, 0.0, 193.0, 0.0, 1.0, 1.0, 0.0, 0.0, 1.0, 1.0, 256.0, 1.0, 1.608195814450051E9, 2020-12-17 14:48:34.450
222.0, 36576.640625, 31822.35546875, 26111.775390625, 24272.80859375, 30159.54296875, 32532.158203125, 33266.3671875, 27303.080078125, 0.0, 0.0, 0.0, 193.0, 0.0, 1.0, 1.0, 0.0, 0.0, 1.0, 1.0, 256.0, 1.0, 1.608195814450055E9, 2020-12-17 14:48:34.450
223.0, 36675.9921875, 31933.35546875, 26216.76171875, 24387.517578125, 30229.794921875, 32636.763671875, 33348.578125, 27399.83984375, 0.0, 0.0, 0.0, 193.0, 0.0, 1.0, 1.0, 0.0, 0.0, 1.0, 1.0, 256.0, 1.0, 1.608195814450059E9, 2020-12-17 14:48:34.450
224.0, 36615.30859375, 31849.423828125, 26132.2734375, 24303.185546875, 30181.6484375, 32562.623046875, 33287.69140625, 27339.6015625, 0.0, 0.0, 0.0, 193.0, 0.0, 1.0, 1.0, 0.0, 0.0, 1.0, 1.0, 256.0, 1.0, 1.608195814450063E9, 2020-12-17 14:48:34.450
225.0, 36489.9609375, 31718.263671875, 26006.833984375, 24169.0078125, 30085.08984375, 32430.48046875, 33180.1796875, 27226.591796875, 0.0, 0.0, 0.0, 193.0, 0.0, 1.0, 1.0, 0.0, 0.0, 1.0, 1.0, 256.0, 1.0, 1.608195814450067E9, 2020-12-17 14:48:34.450
226.0, 36452.0078125, 31680.869140625, 25974.828125, 24146.701171875, 30059.2734375, 32391.611328125, 33141.5546875, 27177.529296875, 0.0, 0.0, 0.0, 193.0, 0.0, 1.0, 1.0, 0.0, 0.0, 1.0, 1.0, 256.0, 1.0, 1.608195814450072E9, 2020-12-17 14:48:34.450
227.0, 36565.84375, 31811.494140625, 26104.84765625, 24274.41796875, 30158.939453125, 32533.09765625, 33255.50390625, 27294.67578125, 0.0, 0.0, 0.0, 193.0, 0.0, 1.0, 1.0, 0.0, 0.0, 1.0, 1.0, 256.0, 1.0, 1.608195814511777E9, 2020-12-17 14:48:34.511
228.0, 36666.15625, 31924.078125, 26211.890625, 24382.2421875, 30236.72265625, 32624.58203125, 33348.77734375, 27397.73828125, 0.0, 0.0, 0.0, 193.0, 0.0, 1.0, 1.0, 0.0, 0.0, 1.0, 1.0, 256.0, 1.0, 1.608195814511784E9, 2020-12-17 14:48:34.511
229.0, 36590.54296875, 31829.396484375, 26116.939453125, 24286.599609375, 30168.013671875, 32533.833984375, 33278.23828125, 27326.5703125, 0.0, 0.0, 0.0, 193.0, 0.0, 1.0, 1.0, 0.0, 0.0, 1.0, 1.0, 256.0, 1.0, 1.608195814511786E9, 2020-12-17 14:48:34.511
230.0, 36483.609375, 31708.25, 25996.798828125, 24167.107421875, 30069.935546875, 32391.095703125, 33152.375, 27204.1953125, 0.0, 0.0, 0.0, 193.0, 0.0, 1.0, 1.0, 0.0, 0.0, 1.0, 1.0, 256.0, 1.0, 1.608195814511788E9, 2020-12-17 14:48:34.511
231.0, 36451.55859375, 31674.611328125, 25963.896484375, 24120.458984375, 30056.703125, 32382.55859375, 33129.8203125, 27176.880859375, 0.0, 0.0, 0.0, 193.0, 0.0, 1.0, 1.0, 0.0, 0.0, 1.0, 1.0, 256.0, 1.0, 1.60819581451179E9, 2020-12-17 14:48:34.511
232.0, 36566.515625, 31815.71875, 26104.892578125, 24269.92578125, 30156.994140625, 32526.435546875, 33254.609375, 27295.279296875, 0.0, 0.0, 0.0, 193.0, 0.0, 1.0, 1.0, 0.0, 0.0, 1.0, 1.0, 256.0, 1.0, 1.608195814511792E9, 2020-12-17 14:48:34.511
233.0, 36667.20703125, 31923.23046875, 26208.515625, 24390.267578125, 30249.46484375, 32627.66796875, 33347.9296875, 27399.34765625, 0.0, 0.0, 0.0, 193.0, 0.0, 1.0, 1.0, 0.0, 0.0, 1.0, 1.0, 256.0, 1.0, 1.608195814511794E9, 2020-12-17 14:48:34.511
234.0, 36605.203125, 31843.814453125, 26126.416015625, 24302.15625, 30179.234375, 32537.43359375, 33275.62109375, 27317.96484375, 0.0, 0.0, 0.0, 193.0, 0.0, 1.0, 1.0, 0.0, 0.0, 1.0, 1.0, 256.0, 1.0, 1.608195814511797E9, 2020-12-17 14:48:34.511
235.0, 36502.69921875, 31721.6171875, 26007.103515625, 24173.142578125, 30095.013671875, 32414.96875, 33170.03125, 27191.701171875, 0.0, 0.0, 0.0, 193.0, 0.0, 1.0, 1.0, 0.0, 0.0, 1.0, 1.0, 256.0, 1.0, 1.608195814511799E9, 2020-12-17 14:48:34.511
236.0, 36469.9765625, 31680.712890625, 25968.45703125, 24124.416015625, 30076.259765625, 32391.095703125, 33137.98046875, 27152.5625, 0.0, 0.0, 0.0, 193.0, 0.0, 1.0, 1.0, 0.0, 0.0, 1.0, 1.0, 256.0, 1.0, 1.608195814511801E9, 2020-12-17 14:48:34.511
237.0, 36595.68359375, 31824.591796875, 26113.453125, 24282.46484375, 30196.2890625, 32533.142578125, 33261.02734375, 27272.123046875, 0.0, 0.0, 0.0, 193.0, 0.0, 1.0, 1.0, 0.0, 0.0, 1.0, 1.0, 256.0, 1.0, 1.608195814511803E9, 2020-12-17 14:48:34.511
238.0, 36695.640625, 31938.4296875, 26229.748046875, 24424.2421875, 30282.8125, 32654.064453125, 33358.61328125, 27372.458984375, 0.0, 0.0, 0.0, 193.0, 0.0, 1.0, 1.0, 0.0, 0.0, 1.0, 1.0, 256.0, 1.0, 1.608195814511814E9, 2020-12-17 14:48:34.511
239.0, 36620.828125, 31853.3359375, 26146.01953125, 24320.955078125, 30229.369140625, 32598.654296875, 33311.5859375, 27331.17578125, 0.0, 0.0, 0.0, 193.0, 0.0, 1.0, 1.0, 0.0, 0.0, 1.0, 1.0, 256.0, 1.0, 1.608195814511816E9, 2020-12-17 14:48:34.511
240.0, 36510.65625, 31729.8203125, 26024.716796875, 24191.91796875, 30125.6796875, 32478.513671875, 33218.40234375, 27253.771484375, 0.0, 0.0, 0.0, 193.0, 0.0, 1.0, 1.0, 0.0, 0.0, 1.0, 1.0, 256.0, 1.0, 1.608195814511818E9, 2020-12-17 14:48:34.511
241.0, 36466.6015625, 31691.84375, 25993.06640625, 24155.015625, 30083.859375, 32444.248046875, 33196.765625, 27238.482421875, 0.0, 0.0, 0.0, 193.0, 0.0, 1.0, 1.0, 0.0, 0.0, 1.0, 1.0, 256.0, 1.0, 1.60819581451182E9, 2020-12-17 14:48:34.511
242.0, 36575.07421875, 31826.0, 26127.712890625, 24290.802734375, 30171.703125, 32560.947265625, 33295.5390625, 27357.259765625, 0.0, 0.0, 0.0, 193.0, 0.0, 1.0, 1.0, 0.0, 0.0, 1.0, 1.0, 256.0, 1.0, 1.608195814570831E9, 2020-12-17 14:48:34.570
243.0, 36659.07421875, 31922.55859375, 26223.04296875, 24388.14453125, 30226.396484375, 32656.634765625, 33376.94140625, 27435.669921875, 0.0, 0.0, 0.0, 193.0, 0.0, 1.0, 1.0, 0.0, 0.0, 1.0, 1.0, 256.0, 1.0, 1.608195814570837E9, 2020-12-17 14:48:34.570
244.0, 36589.89453125, 31841.802734375, 26142.46484375, 24324.330078125, 30147.986328125, 32557.259765625, 33298.9140625, 27364.2109375, 0.0, 0.0, 0.0, 193.0, 0.0, 1.0, 1.0, 0.0, 0.0, 1.0, 1.0, 256.0, 1.0, 1.608195814570839E9, 2020-12-17 14:48:34.570
245.0, 36475.3203125, 31709.345703125, 26001.693359375, 24163.978515625, 30043.73828125, 32407.658203125, 33182.125, 27252.140625, 0.0, 0.0, 0.0, 193.0, 0.0, 1.0, 1.0, 0.0, 0.0, 1.0, 1.0, 256.0, 1.0, 1.608195814570841E9, 2020-12-17 14:48:34.570
246.0, 36440.78515625, 31671.83984375, 25969.57421875, 24132.955078125, 30017.85546875, 32372.65625, 33146.40625, 27210.767578125, 0.0, 0.0, 0.0, 193.0, 0.0, 1.0, 1.0, 0.0, 0.0, 1.0, 1.0, 256.0, 1.0, 1.608195814570843E9, 2020-12-17 14:48:34.570
247.0, 36552.54296875, 31794.908203125, 26090.36328125, 24250.14453125, 30116.6953125, 32488.326171875, 33241.19921875, 27303.66015625, 0.0, 0.0, 0.0, 193.0, 0.0, 1.0, 1.0, 0.0, 0.0, 1.0, 1.0, 256.0, 1.0, 1.608195814570845E9, 2020-12-17 14:48:34.570
248.0, 36643.73828125, 31898.59765625, 26190.275390625, 24354.302734375, 30203.396484375, 32597.470703125, 33328.91015625, 27391.123046875, 0.0, 0.0, 0.0, 193.0, 0.0, 1.0, 1.0, 0.0, 0.0, 1.0, 1.0, 256.0, 1.0, 1.608195814570846E9, 2020-12-17 14:48:34.570
249.0, 36579.27734375, 31825.10546875, 26115.107421875, 24279.984375, 30156.2578125, 32522.591796875, 33259.28125, 27320.22265625, 0.0, 0.0, 0.0, 193.0, 0.0, 1.0, 1.0, 0.0, 0.0, 1.0, 1.0, 256.0, 1.0, 1.608195814570848E9, 2020-12-17 14:48:34.570
250.0, 36495.30078125, 31717.4140625, 26008.17578125, 24177.166015625, 30092.017578125, 32414.744140625, 33165.40625, 27221.31640625, 0.0, 0.0, 0.0, 193.0, 0.0, 1.0, 1.0, 0.0, 0.0, 1.0, 1.0, 256.0, 1.0, 1.60819581457085E9, 2020-12-17 14:48:34.570
251.0, 36468.03125, 31685.25, 25978.560546875, 24141.9609375, 30075.232421875, 32387.587890625, 33140.3046875, 27185.62109375, 0.0, 0.0, 0.0, 193.0, 0.0, 1.0, 1.0, 0.0, 0.0, 1.0, 1.0, 256.0, 1.0, 1.608195814570852E9, 2020-12-17 14:48:34.570
252.0, 36567.140625, 31803.06640625, 26094.7890625, 24261.833984375, 30156.81640625, 32498.5859375, 33237.109375, 27282.962890625, 0.0, 0.0, 0.0, 193.0, 0.0, 1.0, 1.0, 0.0, 0.0, 1.0, 1.0, 256.0, 1.0, 1.608195814570853E9, 2020-12-17 14:48:34.570
253.0, 36645.81640625, 31898.240234375, 26190.611328125, 24349.7890625, 30212.94140625, 32595.01171875, 33331.5234375, 27375.029296875, 0.0, 0.0, 0.0, 193.0, 0.0, 1.0, 1.0, 0.0, 0.0, 1.0, 1.0, 256.0, 1.0, 1.608195814570855E9, 2020-12-17 14:48:34.570
254.0, 36585.109375, 31826.24609375, 26121.119140625, 24285.572265625, 30164.638671875, 32535.220703125, 33276.515625, 27322.01171875, 0.0, 0.0, 0.0, 193.0, 0.0, 1.0, 1.0, 0.0, 0.0, 1.0, 1.0, 256.0, 1.0, 1.608195814570857E9, 2020-12-17 14:48:34.570
255.0, 36491.859375, 31717.9296875, 26015.5078125, 24182.306640625, 30093.314453125, 32434.5703125, 33184.08984375, 27221.384765625, 0.0, 0.0, 0.0, 193.0, 0.0, 1.0, 1.0, 0.0, 0.0, 1.0, 1.0, 256.0, 1.0, 1.608195814570859E9, 2020-12-17 14:48:34.570
0.0, 36453.75, 31685.4296875, 25987.34375, 24148.220703125, 30067.521484375, 32394.62890625, 33155.19140625, 27191.119140625, 0.0, 0.0, 0.0, 193.0, 0.0, 1.0, 1.0, 0.0, 0.0, 1.0, 1.0, 256.0, 1.0, 1.60819581457086E9, 2020-12-17 14:48:34.570
1.0, 36566.73828125, 31815.248046875, 26116.671875, 24296.703125, 30170.65234375, 32523.6640625, 33254.25390625, 27301.783203125, 0.0, 0.0, 0.0, 193.0, 0.0, 1.0, 1.0, 0.0, 0.0, 1.0, 1.0, 256.0, 1.0, 1.608195814630957E9, 2020-12-17 14:48:34.630
2.0, 36656.92578125, 31915.80859375, 26213.41015625, 24393.865234375, 30233.9296875, 32631.82421875, 33347.23828125, 27398.41015625, 0.0, 0.0, 0.0, 193.0, 0.0, 1.0, 1.0, 0.0, 0.0, 1.0, 1.0, 256.0, 1.0, 1.608195814630965E9, 2020-12-17 14:48:34.630
3.0, 36603.86328125, 31837.466796875, 26135.89453125, 24306.939453125, 30191.55078125, 32565.306640625, 33291.9375, 27339.37890625, 0.0, 0.0, 0.0, 193.0, 0.0, 1.0, 1.0, 0.0, 0.0, 1.0, 1.0, 256.0, 1.0, 1.608195814630968E9, 2020-12-17 14:48:34.630
4.0, 36513.5859375, 31721.794921875, 26020.8046875, 24188.341796875, 30116.314453125, 32457.81640625, 33193.27734375, 27239.421875, 0.0, 0.0, 0.0, 193.0, 0.0, 1.0, 1.0, 0.0, 0.0, 1.0, 1.0, 256.0, 1.0, 1.608195814630972E9, 2020-12-17 14:48:34.630
5.0, 36482.0234375, 31679.037109375, 25980.1015625, 24142.38671875, 30088.1953125, 32416.287109375, 33147.8828125, 27175.83203125, 0.0, 0.0, 0.0, 193.0, 0.0, 1.0, 1.0, 0.0, 0.0, 1.0, 1.0, 256.0, 1.0, 1.608195814630975E9, 2020-12-17 14:48:34.630
6.0, 36578.33984375, 31801.927734375, 26105.71875, 24276.85546875, 30162.984375, 32517.830078125, 33244.08203125, 27272.994140625, 0.0, 0.0, 0.0, 193.0, 0.0, 1.0, 1.0, 0.0, 0.0, 1.0, 1.0, 256.0, 1.0, 1.608195814630986E9, 2020-12-17 14:48:34.630
7.0, 36657.28515625, 31911.115234375, 26209.453125, 24383.919921875, 30233.99609375, 32613.384765625, 33333.3359375, 27374.380859375, 0.0, 0.0, 0.0, 193.0, 0.0, 1.0, 1.0, 0.0, 0.0, 1.0, 1.0, 256.0, 1.0, 1.60819581463099E9, 2020-12-17 14:48:34.630
8.0, 36597.91796875, 31843.947265625, 26143.6953125, 24317.826171875, 30188.353515625, 32565.5078125, 33298.82421875, 27332.830078125, 0.0, 0.0, 0.0, 193.0, 0.0, 1.0, 1.0, 0.0, 0.0, 1.0, 1.0, 256.0, 1.0, 1.608195814630993E9, 2020-12-17 14:48:34.630
9.0, 36510.6796875, 31733.84375, 26037.748046875, 24213.822265625, 30112.6484375, 32469.439453125, 33211.203125, 27229.54296875, 0.0, 0.0, 0.0, 193.0, 0.0, 1.0, 1.0, 0.0, 0.0, 1.0, 1.0, 256.0, 1.0, 1.608195814630996E9, 2020-12-17 14:48:34.630
10.0, 36480.75, 31691.12890625, 25994.318359375, 24170.70703125, 30099.662109375, 32422.27734375, 33161.3828125, 27187.431640625, 0.0, 0.0, 0.0, 193.0, 0.0, 1.0, 1.0, 0.0, 0.0, 1.0, 1.0, 256.0, 1.0, 1.608195814630999E9, 2020-12-17 14:48:34.630
11.0, 36585.1328125, 31806.509765625, 26107.8203125, 24288.43359375, 30192.578125, 32531.46484375, 33253.11328125, 27287.478515625, 0.0, 0.0, 0.0, 193.0, 0.0, 1.0, 1.0, 0.0, 0.0, 1.0, 1.0, 256.0, 1.0, 1.608195814631002E9, 2020-12-17 14:48:34.631
12.0, 36665.3984375, 31899.201171875, 26197.00390625, 24374.888671875, 30253.912109375, 32617.1171875, 33328.37109375, 27378.271484375, 0.0, 0.0, 0.0, 193.0, 0.0, 1.0, 1.0, 0.0, 0.0, 1.0, 1.0, 256.0, 1.0, 1.608195814631005E9, 2020-12-17 14:48:34.631
13.0, 36609.2734375, 31834.806640625, 26134.28515625, 24310.44921875, 30199.84375, 32559.29296875, 33277.453125, 27325.4765625, 0.0, 0.0, 0.0, 193.0, 0.0, 1.0, 1.0, 0.0, 0.0, 1.0, 1.0, 256.0, 1.0, 1.608195814631008E9, 2020-12-17 14:48:34.631
14.0, 36515.23828125, 31743.544921875, 26046.8671875, 24220.640625, 30108.08984375, 32434.123046875, 33189.703125, 27225.162109375, 0.0, 0.0, 0.0, 193.0, 0.0, 1.0, 1.0, 0.0, 0.0, 1.0, 1.0, 256.0, 1.0, 1.608195814631012E9, 2020-12-17 14:48:34.631
15.0, 36481.01953125, 31698.013671875, 25999.90625, 24147.884765625, 30095.080078125, 32416.0859375, 33171.86328125, 27198.49609375, 0.0, 0.0, 0.0, 193.0, 0.0, 1.0, 1.0, 0.0, 0.0, 1.0, 1.0, 256.0, 1.0, 1.608195814631015E9, 2020-12-17 14:48:34.631
16.0, 36579.03125, 31801.814453125, 26104.333984375, 24268.919921875, 30181.134765625, 32523.93359375, 33246.8984375, 27282.896484375, 0.0, 0.0, 0.0, 193.0, 0.0, 1.0, 1.0, 0.0, 0.0, 1.0, 1.0, 256.0, 1.0, 1.6081958146904E9, 2020-12-17 14:48:34.690
17.0, 36658.8046875, 31895.044921875, 26196.958984375, 24381.505859375, 30239.986328125, 32617.98828125, 33321.93359375, 27365.015625, 0.0, 0.0, 0.0, 193.0, 0.0, 1.0, 1.0, 0.0, 0.0, 1.0, 1.0, 256.0, 1.0, 1.608195814690407E9, 2020-12-17 14:48:34.690
18.0, 36611.08203125, 31836.146484375, 26144.298828125, 24331.416015625, 30201.98828125, 32583.544921875, 33291.06640625, 27324.24609375, 0.0, 0.0, 0.0, 193.0, 0.0, 1.0, 1.0, 0.0, 0.0, 1.0, 1.0, 256.0, 1.0, 1.608195814690409E9, 2020-12-17 14:48:34.690
19.0, 36528.5390625, 31736.861328125, 26046.95703125, 24235.458984375, 30127.53515625, 32468.634765625, 33200.02734375, 27228.46875, 0.0, 0.0, 0.0, 193.0, 0.0, 1.0, 1.0, 0.0, 0.0, 1.0, 1.0, 256.0, 1.0, 1.608195814690412E9, 2020-12-17 14:48:34.690
20.0, 36503.50390625, 31703.82421875, 26017.609375, 24192.65625, 30105.294921875, 32428.4453125, 33178.6171875, 27199.166015625, 0.0, 0.0, 0.0, 193.0, 0.0, 1.0, 1.0, 0.0, 0.0, 1.0, 1.0, 256.0, 1.0, 1.608195814690414E9, 2020-12-17 14:48:34.690
21.0, 36570.625, 31790.728515625, 26099.974609375, 24260.76171875, 30172.640625, 32529.4765625, 33256.1328125, 27277.8671875, 0.0, 0.0, 0.0, 193.0, 0.0, 1.0, 1.0, 0.0, 0.0, 1.0, 1.0, 256.0, 1.0, 1.608195814690417E9, 2020-12-17 14:48:34.690
22.0, 36637.30078125, 31878.705078125, 26182.921875, 24352.0234375, 30227.201171875, 32610.166015625, 33326.2265625, 27359.607421875, 0.0, 0.0, 0.0, 193.0, 0.0, 1.0, 1.0, 0.0, 0.0, 1.0, 1.0, 256.0, 1.0, 1.60819581469042E9, 2020-12-17 14:48:34.690
23.0, 36613.40625, 31838.181640625, 26142.533203125, 24324.955078125, 30207.15234375, 32572.861328125, 33283.3984375, 27317.83203125, 0.0, 0.0, 0.0, 193.0, 0.0, 1.0, 1.0, 0.0, 0.0, 1.0, 1.0, 256.0, 1.0, 1.608195814690422E9, 2020-12-17 14:48:34.690
24.0, 36531.66796875, 31737.59765625, 26044.20703125, 24230.384765625, 30146.2890625, 32473.931640625, 33194.75390625, 27222.94921875, 0.0, 0.0, 0.0, 193.0, 0.0, 1.0, 1.0, 0.0, 0.0, 1.0, 1.0, 256.0, 1.0, 1.608195814690425E9, 2020-12-17 14:48:34.690
25.0, 36499.37109375, 31700.203125, 26013.427734375, 24192.052734375, 30126.57421875, 32461.83984375, 33177.9453125, 27198.517578125, 0.0, 0.0, 0.0, 193.0, 0.0, 1.0, 1.0, 0.0, 0.0, 1.0, 1.0, 256.0, 1.0, 1.608195814690427E9, 2020-12-17 14:48:34.690
26.0, 36574.91796875, 31795.82421875, 26107.91015625, 24283.44921875, 30167.455078125, 32531.95703125, 33249.625, 27266.244140625, 0.0, 0.0, 0.0, 193.0, 0.0, 1.0, 1.0, 0.0, 0.0, 1.0, 1.0, 256.0, 1.0, 1.60819581469043E9, 2020-12-17 14:48:34.690
27.0, 36657.8203125, 31887.421875, 26198.9921875, 24376.275390625, 30232.140625, 32631.66796875, 33344.66796875, 27363.205078125, 0.0, 0.0, 0.0, 193.0, 0.0, 1.0, 1.0, 0.0, 0.0, 1.0, 1.0, 256.0, 1.0, 1.608195814690432E9, 2020-12-17 14:48:34.690
28.0, 36633.74609375, 31850.138671875, 26161.552734375, 24350.615234375, 30224.765625, 32599.326171875, 33307.8515625, 27338.41796875, 0.0, 0.0, 0.0, 193.0, 0.0, 1.0, 1.0, 0.0, 0.0, 1.0, 1.0, 256.0, 1.0, 1.608195814690435E9, 2020-12-17 14:48:34.690
29.0, 36540.875, 31757.0, 26069.0390625, 24256.224609375, 30149.73046875, 32500.552734375, 33219.36328125, 27249.279296875, 0.0, 0.0, 0.0, 193.0, 0.0, 1.0, 1.0, 0.0, 0.0, 1.0, 1.0, 256.0, 1.0, 1.608195814690445E9, 2020-12-17 14:48:34.690
30.0, 36493.46875, 31706.6640625, 26020.6484375, 24204.166015625, 30111.84375, 32445.5234375, 33177.140625, 27198.33984375, 0.0, 0.0, 0.0, 193.0, 0.0, 1.0, 1.0, 0.0, 0.0, 1.0, 1.0, 256.0, 1.0, 1.608195814690448E9, 2020-12-17 14:48:34.690
31.0, 36576.23828125, 31795.4453125, 26109.33984375, 24292.724609375, 30178.609375, 32531.599609375, 33250.6328125, 27272.16796875, 0.0, 0.0, 0.0, 193.0, 0.0, 1.0, 1.0, 0.0, 0.0, 1.0, 1.0, 256.0, 1.0, 1.608195814750113E9, 2020-12-17 14:48:34.750
32.0, 36671.03125, 31907.091796875, 26221.544921875, 24406.71875, 30250.6484375, 32637.3671875, 33346.96875, 27367.630859375, 0.0, 0.0, 0.0, 193.0, 0.0, 1.0, 1.0, 0.0, 0.0, 1.0, 1.0, 256.0, 1.0, 1.608195814750132E9, 2020-12-17 14:48:34.750
33.0, 36617.87890625, 31850.83203125, 26165.15234375, 24346.94921875, 30209.65625, 32574.984375, 33304.12109375, 27321.9453125, 0.0, 0.0, 0.0, 193.0, 0.0, 1.0, 1.0, 0.0, 0.0, 1.0, 1.0, 256.0, 1.0, 1.608195814750141E9, 2020-12-17 14:48:34.750
34.0, 36543.8046875, 31746.517578125, 26059.943359375, 24237.6953125, 30165.734375, 32492.640625, 33221.30859375, 27242.373046875, 0.0, 0.0, 0.0, 193.0, 0.0, 1.0, 1.0, 0.0, 0.0, 1.0, 1.0, 256.0, 1.0, 1.60819581475015E9, 2020-12-17 14:48:34.750
35.0, 36493.15625, 31695.578125, 26010.43359375, 24176.8984375, 30125.166015625, 32446.640625, 33187.15234375, 27203.369140625, 0.0, 0.0, 0.0, 193.0, 0.0, 1.0, 1.0, 0.0, 0.0, 1.0, 1.0, 256.0, 1.0, 1.608195814750159E9, 2020-12-17 14:48:34.750
36.0, 36576.70703125, 31792.986328125, 26107.57421875, 24283.291015625, 30185.314453125, 32529.923828125, 33254.05078125, 27271.65234375, 0.0, 0.0, 0.0, 193.0, 0.0, 1.0, 1.0, 0.0, 0.0, 1.0, 1.0, 256.0, 1.0, 1.608195814750167E9, 2020-12-17 14:48:34.750
37.0, 36657.8203125, 31885.90234375, 26194.92578125, 24373.81640625, 30240.6796875, 32624.001953125, 33332.84375, 27354.2421875, 0.0, 0.0, 0.0, 193.0, 0.0, 1.0, 1.0, 0.0, 0.0, 1.0, 1.0, 256.0, 1.0, 1.608195814750176E9, 2020-12-17 14:48:34.750
38.0, 36627.9140625, 31845.84765625, 26160.591796875, 24343.8203125, 30225.90625, 32604.33203125, 33309.88671875, 27323.95703125, 0.0, 0.0, 0.0, 193.0, 0.0, 1.0, 1.0, 0.0, 0.0, 1.0, 1.0, 256.0, 1.0, 1.608195814750185E9, 2020-12-17 14:48:34.750
39.0, 36551.6484375, 31761.134765625, 26079.076171875, 24267.7578125, 30170.78515625, 32521.25, 33242.4296875, 27248.36328125, 0.0, 0.0, 0.0, 193.0, 0.0, 1.0, 1.0, 0.0, 0.0, 1.0, 1.0, 256.0, 1.0, 1.608195814750193E9, 2020-12-17 14:48:34.750
40.0, 36500.44140625, 31715.849609375, 26032.025390625, 24207.943359375, 30134.6875, 32466.734375, 33204.453125, 27215.68359375, 0.0, 0.0, 0.0, 193.0, 0.0, 1.0, 1.0, 0.0, 0.0, 1.0, 1.0, 256.0, 1.0, 1.608195814750202E9, 2020-12-17 14:48:34.750
41.0, 36576.23828125, 31790.908203125, 26105.517578125, 24277.63671875, 30189.962890625, 32537.5234375, 33256.95703125, 27283.56640625, 0.0, 0.0, 0.0, 193.0, 0.0, 1.0, 1.0, 0.0, 0.0, 1.0, 1.0, 256.0, 1.0, 1.608195814750211E9, 2020-12-17 14:48:34.750
42.0, 36666.11328125, 31882.884765625, 26190.9453125, 24382.712890625, 30251.587890625, 32617.498046875, 33307.5390625, 27346.642578125, 0.0, 0.0, 0.0, 193.0, 0.0, 1.0, 1.0, 0.0, 0.0, 1.0, 1.0, 256.0, 1.0, 1.60819581475022E9, 2020-12-17 14:48:34.750
43.0, 36624.203125, 31844.998046875, 26153.796875, 24344.69140625, 30211.712890625, 32569.12890625, 33280.42578125, 27316.22265625, 0.0, 0.0, 0.0, 193.0, 0.0, 1.0, 1.0, 0.0, 0.0, 1.0, 1.0, 256.0, 1.0, 1.608195814750229E9, 2020-12-17 14:48:34.750
44.0, 36529.3203125, 31755.033203125, 26069.77734375, 24248.669921875, 30134.12890625, 32477.375, 33224.48046875, 27243.2890625, 0.0, 0.0, 0.0, 193.0, 0.0, 1.0, 1.0, 0.0, 0.0, 1.0, 1.0, 256.0, 1.0, 1.608195814750237E9, 2020-12-17 14:48:34.750
45.0, 36491.390625, 31710.12890625, 26025.119140625, 24191.873046875, 30128.541015625, 32467.806640625, 33199.4921875, 27210.900390625, 0.0, 0.0, 0.0, 193.0, 0.0, 1.0, 1.0, 0.0, 0.0, 1.0, 1.0, 256.0, 1.0, 1.608195814750246E9, 2020-12-17 14:48:34.750
46.0, 36568.75, 31797.658203125, 26114.48046875, 24297.306640625, 30186.65625, 32549.1015625, 33261.78515625, 27277.798828125, 0.0, 0.0, 0.0, 193.0, 0.0, 1.0, 1.0, 0.0, 0.0, 1.0, 1.0, 256.0, 1.0, 1.608195814810743E9, 2020-12-17 14:48:34.810
47.0, 36646.51171875, 31881.41015625, 26198.255859375, 24391.36328125, 30234.353515625, 32626.951171875, 33337.828125, 27360.43359375, 0.0, 0.0, 0.0, 193.0, 0.0, 1.0, 1.0, 0.0, 0.0, 1.0, 1.0, 256.0, 1.0, 1.608195814810748E9, 2020-12-17 14:48:34.810
48.0, 36610.48046875, 31832.705078125, 26150.17578125, 24330.07421875, 30201.720703125, 32589.35546875, 33309.1484375, 27336.8984375, 0.0, 0.0, 0.0, 193.0, 0.0, 1.0, 1.0, 0.0, 0.0, 1.0, 1.0, 256.0, 1.0, 1.608195814810749E9, 2020-12-17 14:48:34.810
49.0, 36553.23828125, 31744.55078125, 26058.01953125, 24241.3828125, 30169.2890625, 32503.81640625, 33220.97265625, 27256.96875, 0.0, 0.0, 0.0, 193.0, 0.0, 1.0, 1.0, 0.0, 0.0, 1.0, 1.0, 256.0, 1.0, 1.608195814810751E9, 2020-12-17 14:48:34.810
50.0, 36500.734375, 31695.3984375, 26007.884765625, 24176.5625, 30128.96484375, 32444.47265625, 33166.58984375, 27203.927734375, 0.0, 0.0, 0.0, 193.0, 0.0, 1.0, 1.0, 0.0, 0.0, 1.0, 1.0, 256.0, 1.0, 1.608195814810753E9, 2020-12-17 14:48:34.810
51.0, 36572.390625, 31784.357421875, 26102.9921875, 24288.72265625, 30181.55859375, 32526.771484375, 33229.98046875, 27263.0703125, 0.0, 0.0, 0.0, 193.0, 0.0, 1.0, 1.0, 0.0, 0.0, 1.0, 1.0, 256.0, 1.0, 1.608195814810755E9, 2020-12-17 14:48:34.810
52.0, 36657.08203125, 31890.6640625, 26209.431640625, 24406.44921875, 30237.908203125, 32625.87890625, 33323.453125, 27360.904296875, 0.0, 0.0, 0.0, 193.0, 0.0, 1.0, 1.0, 0.0, 0.0, 1.0, 1.0, 256.0, 1.0, 1.608195814810762E9, 2020-12-17 14:48:34.810
53.0, 36612.08984375, 31846.943359375, 26159.1171875, 24331.99609375, 30188.599609375, 32573.7109375, 33297.125, 27338.39453125, 0.0, 0.0, 0.0, 193.0, 0.0, 1.0, 1.0, 0.0, 0.0, 1.0, 1.0, 256.0, 1.0, 1.608195814810763E9, 2020-12-17 14:48:34.810
54.0, 36530.796875, 31741.533203125, 26056.947265625, 24224.953125, 30136.69921875, 32471.40625, 33217.6640625, 27257.59375, 0.0, 0.0, 0.0, 193.0, 0.0, 1.0, 1.0, 0.0, 0.0, 1.0, 1.0, 256.0, 1.0, 1.608195814810764E9, 2020-12-17 14:48:34.810
55.0, 36490.875, 31701.052734375, 26025.833984375, 24201.126953125, 30118.6171875, 32454.708984375, 33193.58984375, 27221.09375, 0.0, 0.0, 0.0, 193.0, 0.0, 1.0, 1.0, 0.0, 0.0, 1.0, 1.0, 256.0, 1.0, 1.608195814810766E9, 2020-12-17 14:48:34.810
56.0, 36552.43359375, 31783.77734375, 26104.712890625, 24286.107421875, 30158.783203125, 32530.01171875, 33244.171875, 27280.212890625, 0.0, 0.0, 0.0, 193.0, 0.0, 1.0, 1.0, 0.0, 0.0, 1.0, 1.0, 256.0, 1.0, 1.608195814810767E9, 2020-12-17 14:48:34.810
57.0, 36632.18359375, 31877.6328125, 26191.416015625, 24378.48828125, 30227.15625, 32608.220703125, 33323.34375, 27369.017578125, 0.0, 0.0, 0.0, 193.0, 0.0, 1.0, 1.0, 0.0, 0.0, 1.0, 1.0, 256.0, 1.0, 1.608195814810769E9, 2020-12-17 14:48:34.810
58.0, 36607.9765625, 31847.2109375, 26161.62109375, 24342.859375, 30206.97265625, 32571.318359375, 33302.2890625, 27348.38671875, 0.0, 0.0, 0.0, 193.0, 0.0, 1.0, 1.0, 0.0, 0.0, 1.0, 1.0, 256.0, 1.0, 1.60819581481077E9, 2020-12-17 14:48:34.810
59.0, 36528.984375, 31746.025390625, 26065.173828125, 24239.080078125, 30141.05859375, 32493.69140625, 33221.46484375, 27264.90234375, 0.0, 0.0, 0.0, 193.0, 0.0, 1.0, 1.0, 0.0, 0.0, 1.0, 1.0, 256.0, 1.0, 1.608195814810771E9, 2020-12-17 14:48:34.810
60.0, 36495.8828125, 31713.279296875, 26041.927734375, 24221.33203125, 30115.509765625, 32468.142578125, 33201.125, 27225.609375, 0.0, 0.0, 0.0, 193.0, 0.0, 1.0, 1.0, 0.0, 0.0, 1.0, 1.0, 256.0, 1.0, 1.608195814810773E9, 2020-12-17 14:48:34.810
61.0, 36559.13671875, 31788.203125, 26113.876953125, 24294.669921875, 30167.142578125, 32533.56640625, 33249.359375, 27286.2265625, 0.0, 0.0, 0.0, 193.0, 0.0, 1.0, 1.0, 0.0, 0.0, 1.0, 1.0, 256.0, 1.0, 1.608195814873538E9, 2020-12-17 14:48:34.873
62.0, 36640.7421875, 31874.390625, 26196.4453125, 24379.62890625, 30215.064453125, 32595.302734375, 33315.453125, 27370.89453125, 0.0, 0.0, 0.0, 193.0, 0.0, 1.0, 1.0, 0.0, 0.0, 1.0, 1.0, 256.0, 1.0, 1.608195814873547E9, 2020-12-17 14:48:34.873
63.0, 36620.26953125, 31838.91796875, 26153.015625, 24325.71484375, 30211.0859375, 32589.154296875, 33302.66796875, 27355.158203125, 0.0, 0.0, 0.0, 193.0, 0.0, 1.0, 1.0, 0.0, 0.0, 1.0, 1.0, 256.0, 1.0, 1.608195814873551E9, 2020-12-17 14:48:34.873
64.0, 36544.2734375, 31767.482421875, 26083.61328125, 24267.109375, 30158.515625, 32524.625, 33238.65234375, 27282.94140625, 0.0, 0.0, 0.0, 193.0, 0.0, 1.0, 1.0, 0.0, 0.0, 1.0, 1.0, 256.0, 1.0, 1.608195814873554E9, 2020-12-17 14:48:34.873
65.0, 36517.8984375, 31727.96484375, 26052.365234375, 24242.455078125, 30141.662109375, 32499.30078125, 33215.2265625, 27253.234375, 0.0, 0.0, 0.0, 193.0, 0.0, 1.0, 1.0, 0.0, 0.0, 1.0, 1.0, 256.0, 1.0, 1.608195814873557E9, 2020-12-17 14:48:34.873
66.0, 36575.54296875, 31784.939453125, 26114.234375, 24310.560546875, 30190.857421875, 32567.5625, 33263.73046875, 27295.63671875, 0.0, 0.0, 0.0, 193.0, 0.0, 1.0, 1.0, 0.0, 0.0, 1.0, 1.0, 256.0, 1.0, 1.608195814873561E9, 2020-12-17 14:48:34.873
67.0, 36642.2421875, 31868.580078125, 26187.90625, 24371.513671875, 30221.30078125, 32612.958984375, 33318.94140625, 27366.3359375, 0.0, 0.0, 0.0, 193.0, 0.0, 1.0, 1.0, 0.0, 0.0, 1.0, 1.0, 256.0, 1.0, 1.608195814873564E9, 2020-12-17 14:48:34.873
68.0, 36616.53515625, 31843.03125, 26159.251953125, 24340.244140625, 30192.17578125, 32570.916015625, 33296.609375, 27338.484375, 0.0, 0.0, 0.0, 193.0, 0.0, 1.0, 1.0, 0.0, 0.0, 1.0, 1.0, 256.0, 1.0, 1.608195814873567E9, 2020-12-17 14:48:34.873
69.0, 36527.82421875, 31757.89453125, 26074.896484375, 24246.412109375, 30138.33203125, 32501.8046875, 33231.296875, 27264.052734375, 0.0, 0.0, 0.0, 193.0, 0.0, 1.0, 1.0, 0.0, 0.0, 1.0, 1.0, 256.0, 1.0, 1.60819581487357E9, 2020-12-17 14:48:34.873
70.0, 36481.1953125, 31714.240234375, 26031.48828125, 24194.17578125, 30108.40234375, 32452.921875, 33189.234375, 27225.408203125, 0.0, 0.0, 0.0, 193.0, 0.0, 1.0, 1.0, 0.0, 0.0, 1.0, 1.0, 256.0, 1.0, 1.608195814873574E9, 2020-12-17 14:48:34.873
71.0, 36537.703125, 31778.927734375, 26099.572265625, 24268.271484375, 30134.083984375, 32508.80078125, 33235.03125, 27269.10546875, 0.0, 0.0, 0.0, 193.0, 0.0, 1.0, 1.0, 0.0, 0.0, 1.0, 1.0, 256.0, 1.0, 1.608195814873577E9, 2020-12-17 14:48:34.873
72.0, 36622.99609375, 31866.724609375, 26184.12890625, 24371.06640625, 30200.89453125, 32592.84375, 33305.41796875, 27344.744140625, 0.0, 0.0, 0.0, 193.0, 0.0, 1.0, 1.0, 0.0, 0.0, 1.0, 1.0, 256.0, 1.0, 1.60819581487358E9, 2020-12-17 14:48:34.873
73.0, 36592.46484375, 31838.494140625, 26152.076171875, 24328.197265625, 30191.21484375, 32565.462890625, 33291.69140625, 27332.78515625, 0.0, 0.0, 0.0, 193.0, 0.0, 1.0, 1.0, 0.0, 0.0, 1.0, 1.0, 256.0, 1.0, 1.608195814873584E9, 2020-12-17 14:48:34.873
74.0, 36524.89453125, 31766.923828125, 26085.71484375, 24253.943359375, 30149.015625, 32492.416015625, 33236.52734375, 27274.55859375, 0.0, 0.0, 0.0, 193.0, 0.0, 1.0, 1.0, 0.0, 0.0, 1.0, 1.0, 256.0, 1.0, 1.608195814873587E9, 2020-12-17 14:48:34.873
75.0, 36503.7734375, 31740.9296875, 26063.4296875, 24243.908203125, 30137.951171875, 32485.890625, 33214.98046875, 27242.171875, 0.0, 0.0, 0.0, 193.0, 0.0, 1.0, 1.0, 0.0, 0.0, 1.0, 1.0, 256.0, 1.0, 1.60819581487359E9, 2020-12-17 14:48:34.873
76.0, 36534.28125, 31802.775390625, 26116.76171875, 24287.806640625, 30150.669921875, 32510.6328125, 33239.8125, 27277.173828125, 0.0, 0.0, 0.0, 193.0, 0.0, 1.0, 1.0, 0.0, 0.0, 1.0, 1.0, 256.0, 1.0, 1.608195814930911E9, 2020-12-17 14:48:34.930
77.0, 36601.046875, 31876.603515625, 26190.521484375, 24365.12109375, 30195.73046875, 32595.50390625, 33302.8671875, 27344.876953125, 0.0, 0.0, 0.0, 193.0, 0.0, 1.0, 1.0, 0.0, 0.0, 1.0, 1.0, 256.0, 1.0, 1.608195814930917E9, 2020-12-17 14:48:34.930
78.0, 36586.765625, 31855.369140625, 26163.38671875, 24327.03515625, 30194.12109375, 32596.3515625, 33296.02734375, 27338.931640625, 0.0, 0.0, 0.0, 193.0, 0.0, 1.0, 1.0, 0.0, 0.0, 1.0, 1.0, 256.0, 1.0, 1.608195814930919E9, 2020-12-17 14:48:34.930
79.0, 36515.5078125, 31781.005859375, 26094.521484375, 24264.91796875, 30144.724609375, 32517.00390625, 33235.859375, 27275.69921875, 0.0, 0.0, 0.0, 193.0, 0.0, 1.0, 1.0, 0.0, 0.0, 1.0, 1.0, 256.0, 1.0, 1.608195814930921E9, 2020-12-17 14:48:34.930
80.0, 36479.74609375, 31739.498046875, 26064.45703125, 24239.6171875, 30123.84765625, 32494.875, 33225.28515625, 27249.7265625, 0.0, 0.0, 0.0, 193.0, 0.0, 1.0, 1.0, 0.0, 0.0, 1.0, 1.0, 256.0, 1.0, 1.608195814930922E9, 2020-12-17 14:48:34.930
81.0, 36536.7421875, 31805.056640625, 26124.203125, 24293.685546875, 30155.98828125, 32557.080078125, 33262.92578125, 27292.216796875, 0.0, 0.0, 0.0, 193.0, 0.0, 1.0, 1.0, 0.0, 0.0, 1.0, 1.0, 256.0, 1.0, 1.608195814930924E9, 2020-12-17 14:48:34.930
82.0, 36608.421875, 31902.0625, 26212.8515625, 24391.09375, 30194.322265625, 32608.69140625, 33315.02734375, 27353.908203125, 0.0, 0.0, 0.0, 193.0, 0.0, 1.0, 1.0, 0.0, 0.0, 1.0, 1.0, 256.0, 1.0, 1.608195814930926E9, 2020-12-17 14:48:34.930
83.0, 36583.74609375, 31868.78125, 26177.333984375, 24347.44140625, 30179.63671875, 32574.11328125, 33296.4765625, 27339.177734375, 0.0, 0.0, 0.0, 193.0, 0.0, 1.0, 1.0, 0.0, 0.0, 1.0, 1.0, 256.0, 1.0, 1.608195814930927E9, 2020-12-17 14:48:34.930
84.0, 36517.140625, 31789.052734375, 26097.13671875, 24255.10546875, 30149.841796875, 32528.8046875, 33245.69140625, 27291.345703125, 0.0, 0.0, 0.0, 193.0, 0.0, 1.0, 1.0, 0.0, 0.0, 1.0, 1.0, 256.0, 1.0, 1.608195814930929E9, 2020-12-17 14:48:34.930
85.0, 36478.58203125, 31759.927734375, 26070.42578125, 24233.603515625, 30117.544921875, 32487.72265625, 33208.3203125, 27251.267578125, 0.0, 0.0, 0.0, 193.0, 0.0, 1.0, 1.0, 0.0, 0.0, 1.0, 1.0, 256.0, 1.0, 1.608195814930931E9, 2020-12-17 14:48:34.930
86.0, 36516.3125, 31818.109375, 26124.494140625, 24282.912109375, 30153.10546875, 32540.5625, 33255.05859375, 27298.876953125, 0.0, 0.0, 0.0, 193.0, 0.0, 1.0, 1.0, 0.0, 0.0, 1.0, 1.0, 256.0, 1.0, 1.608195814930932E9, 2020-12-17 14:48:34.930
87.0, 36565.8671875, 31888.875, 26196.734375, 24355.935546875, 30179.234375, 32602.9453125, 33320.83984375, 27362.244140625, 0.0, 0.0, 0.0, 193.0, 0.0, 1.0, 1.0, 0.0, 0.0, 1.0, 1.0, 256.0, 1.0, 1.608195814930934E9, 2020-12-17 14:48:34.930
88.0, 36575.03125, 31872.021484375, 26176.640625, 24345.564453125, 30176.84375, 32583.791015625, 33298.375, 27347.044921875, 0.0, 0.0, 0.0, 193.0, 0.0, 1.0, 1.0, 0.0, 0.0, 1.0, 1.0, 256.0, 1.0, 1.608195814930938E9, 2020-12-17 14:48:34.930
89.0, 36513.5859375, 31794.439453125, 26099.70703125, 24264.560546875, 30140.052734375, 32514.611328125, 33234.671875, 27282.984375, 0.0, 0.0, 0.0, 193.0, 0.0, 1.0, 1.0, 0.0, 0.0, 1.0, 1.0, 256.0, 1.0, 1.608195814930939E9, 2020-12-17 14:48:34.930
90.0, 36485.17578125, 31765.404296875, 26073.666015625, 24231.1015625, 30122.931640625, 32482.849609375, 33217.73046875, 27252.9453125, 0.0, 0.0, 0.0, 193.0, 0.0, 1.0, 1.0, 0.0, 0.0, 1.0, 1.0, 256.0, 1.0, 1.608195814930941E9, 2020-12-17 14:48:34.930
91.0, 36533.0546875, 31834.44921875, 26140.9453125, 24301.576171875, 30150.177734375, 32540.919921875, 33259.75390625, 27292.462890625, 0.0, 0.0, 0.0, 193.0, 0.0, 1.0, 1.0, 0.0, 0.0, 1.0, 1.0, 256.0, 1.0, 1.608195814989926E9, 2020-12-17 14:48:34.989
92.0, 36595.5703125, 31916.970703125, 26221.947265625, 24380.96875, 30183.34765625, 32607.21484375, 33324.97265625, 27365.6640625, 0.0, 0.0, 0.0, 193.0, 0.0, 1.0, 1.0, 0.0, 0.0, 1.0, 1.0, 256.0, 1.0, 1.60819581498993E9, 2020-12-17 14:48:34.989
93.0, 36566.40234375, 31888.115234375, 26197.3828125, 24358.05859375, 30165.890625, 32594.318359375, 33316.01171875, 27352.41015625, 0.0, 0.0, 0.0, 193.0, 0.0, 1.0, 1.0, 0.0, 0.0, 1.0, 1.0, 256.0, 1.0, 1.608195814989932E9, 2020-12-17 14:48:34.989
94.0, 36511.73046875, 31814.845703125, 26114.927734375, 24264.6953125, 30133.458984375, 32529.810546875, 33247.94921875, 27292.931640625, 0.0, 0.0, 0.0, 193.0, 0.0, 1.0, 1.0, 0.0, 0.0, 1.0, 1.0, 256.0, 1.0, 1.608195814989934E9, 2020-12-17 14:48:34.989
95.0, 36494.00390625, 31784.314453125, 26084.373046875, 24245.025390625, 30125.30078125, 32490.361328125, 33210.19921875, 27259.44921875, 0.0, 0.0, 0.0, 193.0, 0.0, 1.0, 1.0, 0.0, 0.0, 1.0, 1.0, 256.0, 1.0, 1.608195814989935E9, 2020-12-17 14:48:34.989
96.0, 36536.4296875, 31849.0, 26152.009765625, 24325.380859375, 30149.26171875, 32531.599609375, 33252.82421875, 27293.244140625, 0.0, 0.0, 0.0, 193.0, 0.0, 1.0, 1.0, 0.0, 0.0, 1.0, 1.0, 256.0, 1.0, 1.608195814989937E9, 2020-12-17 14:48:34.989
97.0, 36594.453125, 31911.091796875, 26209.162109375, 24359.064453125, 30204.873046875, 32614.501953125, 33321.375, 27367.966796875, 0.0, 0.0, 0.0, 193.0, 0.0, 1.0, 1.0, 0.0, 0.0, 1.0, 1.0, 256.0, 1.0, 1.608195814989938E9, 2020-12-17 14:48:34.989
98.0, 36589.2890625, 31886.751953125, 26184.46484375, 24344.24609375, 30191.23828125, 32599.884765625, 33305.6171875, 27356.9921875, 0.0, 0.0, 0.0, 193.0, 0.0, 1.0, 1.0, 0.0, 0.0, 1.0, 1.0, 256.0, 1.0, 1.60819581498994E9, 2020-12-17 14:48:34.989
99.0, 36540.80859375, 31821.373046875, 26122.21484375, 24282.443359375, 30151.853515625, 32526.994140625, 33250.02734375, 27297.87109375, 0.0, 0.0, 0.0, 193.0, 0.0, 1.0, 1.0, 0.0, 0.0, 1.0, 1.0, 256.0, 1.0, 1.608195814989949E9, 2020-12-17 14:48:34.989
100.0, 36500.578125, 31780.447265625, 26085.400390625, 24235.28125, 30139.470703125, 32505.6484375, 33231.6796875, 27270.2890625, 0.0, 0.0, 0.0, 193.0, 0.0, 1.0, 1.0, 0.0, 0.0, 1.0, 1.0, 256.0, 1.0, 1.60819581498995E9, 2020-12-17 14:48:34.989
101.0, 36537.94921875, 31842.65234375, 26148.96875, 24307.54296875, 30159.966796875, 32555.828125, 33271.44140625, 27304.755859375, 0.0, 0.0, 0.0, 193.0, 0.0, 1.0, 1.0, 0.0, 0.0, 1.0, 1.0, 256.0, 1.0, 1.608195814989952E9, 2020-12-17 14:48:34.989
102.0, 36592.6875, 31917.73046875, 26222.037109375, 24390.0, 30185.650390625, 32613.80859375, 33325.0859375, 27363.98828125, 0.0, 0.0, 0.0, 193.0, 0.0, 1.0, 1.0, 0.0, 0.0, 1.0, 1.0, 256.0, 1.0, 1.608195814989953E9, 2020-12-17 14:48:34.989
103.0, 36589.984375, 31896.7421875, 26199.484375, 24373.234375, 30190.25390625, 32615.28515625, 33322.203125, 27358.2890625, 0.0, 0.0, 0.0, 193.0, 0.0, 1.0, 1.0, 0.0, 0.0, 1.0, 1.0, 256.0, 1.0, 1.608195814989955E9, 2020-12-17 14:48:34.989
104.0, 36530.640625, 31823.5625, 26126.484375, 24283.314453125, 30155.251953125, 32559.517578125, 33272.78515625, 27310.455078125, 0.0, 0.0, 0.0, 193.0, 0.0, 1.0, 1.0, 0.0, 0.0, 1.0, 1.0, 256.0, 1.0, 1.608195814989956E9, 2020-12-17 14:48:34.989
105.0, 36498.33984375, 31782.90625, 26087.525390625, 24240.3984375, 30136.3203125, 32507.50390625, 33228.2578125, 27281.130859375, 0.0, 0.0, 0.0, 193.0, 0.0, 1.0, 1.0, 0.0, 0.0, 1.0, 1.0, 256.0, 1.0, 1.608195814989958E9, 2020-12-17 14:48:34.989
106.0, 36541.66015625, 31837.30859375, 26145.1484375, 24309.15234375, 30174.205078125, 32563.919921875, 33269.921875, 27317.228515625, 0.0, 0.0, 0.0, 193.0, 0.0, 1.0, 1.0, 0.0, 0.0, 1.0, 1.0, 256.0, 1.0, 1.608195815050173E9, 2020-12-17 14:48:35.050
107.0, 36607.9765625, 31920.345703125, 26227.4921875, 24403.4765625, 30200.693359375, 32632.2265625, 33332.55078125, 27378.60546875, 0.0, 0.0, 0.0, 193.0, 0.0, 1.0, 1.0, 0.0, 0.0, 1.0, 1.0, 256.0, 1.0, 1.60819581505019E9, 2020-12-17 14:48:35.050
108.0, 36580.5078125, 31888.2265625, 26187.146484375, 24334.365234375, 30169.6015625, 32587.1875, 33311.9453125, 27365.732421875, 0.0, 0.0, 0.0, 193.0, 0.0, 1.0, 1.0, 0.0, 0.0, 1.0, 1.0, 256.0, 1.0, 1.608195815050197E9, 2020-12-17 14:48:35.050
109.0, 36520.84765625, 31817.796875, 26115.263671875, 24257.69921875, 30132.69921875, 32521.853515625, 33248.98046875, 27303.794921875, 0.0, 0.0, 0.0, 193.0, 0.0, 1.0, 1.0, 0.0, 0.0, 1.0, 1.0, 256.0, 1.0, 1.608195815050204E9, 2020-12-17 14:48:35.050
110.0, 36484.21484375, 31776.2890625, 26079.322265625, 24229.8046875, 30117.4765625, 32492.23828125, 33221.08203125, 27271.205078125, 0.0, 0.0, 0.0, 193.0, 0.0, 1.0, 1.0, 0.0, 0.0, 1.0, 1.0, 256.0, 1.0, 1.608195815050211E9, 2020-12-17 14:48:35.050
111.0, 36542.26171875, 31839.96875, 26147.8515625, 24321.8046875, 30166.986328125, 32563.583984375, 33264.265625, 27317.318359375, 0.0, 0.0, 0.0, 193.0, 0.0, 1.0, 1.0, 0.0, 0.0, 1.0, 1.0, 256.0, 1.0, 1.608195815050218E9, 2020-12-17 14:48:35.050
112.0, 36604.87109375, 31915.00390625, 26221.859375, 24401.48828125, 30198.30078125, 32616.982421875, 33321.265625, 27378.44921875, 0.0, 0.0, 0.0, 193.0, 0.0, 1.0, 1.0, 0.0, 0.0, 1.0, 1.0, 256.0, 1.0, 1.608195815050225E9, 2020-12-17 14:48:35.050
113.0, 36579.0078125, 31877.36328125, 26182.138671875, 24337.451171875, 30178.005859375, 32601.068359375, 33310.71484375, 27359.40625, 0.0, 0.0, 0.0, 193.0, 0.0, 1.0, 1.0, 0.0, 0.0, 1.0, 1.0, 256.0, 1.0, 1.608195815050232E9, 2020-12-17 14:48:35.050
114.0, 36528.62890625, 31812.9453125, 26120.13671875, 24271.400390625, 30142.421875, 32540.31640625, 33262.14453125, 27305.740234375, 0.0, 0.0, 0.0, 193.0, 0.0, 1.0, 1.0, 0.0, 0.0, 1.0, 1.0, 256.0, 1.0, 1.608195815050239E9, 2020-12-17 14:48:35.050
115.0, 36517.25, 31797.232421875, 26103.662109375, 24264.091796875, 30153.798828125, 32528.0234375, 33241.984375, 27292.3515625, 0.0, 0.0, 0.0, 193.0, 0.0, 1.0, 1.0, 0.0, 0.0, 1.0, 1.0, 256.0, 1.0, 1.608195815050246E9, 2020-12-17 14:48:35.050
116.0, 36555.515625, 31844.88671875, 26150.623046875, 24325.134765625, 30185.984375, 32583.43359375, 33275.53125, 27329.833984375, 0.0, 0.0, 0.0, 193.0, 0.0, 1.0, 1.0, 0.0, 0.0, 1.0, 1.0, 256.0, 1.0, 1.608195815050253E9, 2020-12-17 14:48:35.050
117.0, 36621.69921875, 31923.2734375, 26231.068359375, 24416.44140625, 30222.10546875, 32653.484375, 33339.52734375, 27394.765625, 0.0, 0.0, 0.0, 193.0, 0.0, 1.0, 1.0, 0.0, 0.0, 1.0, 1.0, 256.0, 1.0, 1.60819581505026E9, 2020-12-17 14:48:35.050
118.0, 36598.5, 31897.435546875, 26200.267578125, 24364.205078125, 30194.12109375, 32609.40625, 33314.1328125, 27369.732421875, 0.0, 0.0, 0.0, 193.0, 0.0, 1.0, 1.0, 0.0, 0.0, 1.0, 1.0, 256.0, 1.0, 1.608195815050267E9, 2020-12-17 14:48:35.050
119.0, 36537.14453125, 31826.89453125, 26130.037109375, 24277.94921875, 30152.63671875, 32547.513671875, 33265.20703125, 27320.447265625, 0.0, 0.0, 0.0, 193.0, 0.0, 1.0, 1.0, 0.0, 0.0, 1.0, 1.0, 256.0, 1.0, 1.608195815050274E9, 2020-12-17 14:48:35.050
120.0, 36516.8046875, 31801.994140625, 26108.982421875, 24261.25390625, 30147.451171875, 32516.98046875, 33250.9453125, 27286.337890625, 0.0, 0.0, 0.0, 193.0, 0.0, 1.0, 1.0, 0.0, 0.0, 1.0, 1.0, 256.0, 1.0, 1.608195815050281E9, 2020-12-17 14:48:35.050
121.0, 36564.63671875, 31857.134765625, 26165.576171875, 24324.75390625, 30185.134765625, 32582.271484375, 33294.28515625, 27331.01953125, 0.0, 0.0, 0.0, 193.0, 0.0, 1.0, 1.0, 0.0, 0.0, 1.0, 1.0, 256.0, 1.0, 1.608195815110461E9, 2020-12-17 14:48:35.110
122.0, 36623.4453125, 31918.111328125, 26222.39453125, 24390.916015625, 30233.146484375, 32658.6015625, 33338.25, 27394.38671875, 0.0, 0.0, 0.0, 193.0, 0.0, 1.0, 1.0, 0.0, 0.0, 1.0, 1.0, 256.0, 1.0, 1.60819581511047E9, 2020-12-17 14:48:35.110
123.0, 36602.2109375, 31902.8671875, 26211.419921875, 24385.037109375, 30223.06640625, 32646.12890625, 33331.5, 27385.19921875, 0.0, 0.0, 0.0, 193.0, 0.0, 1.0, 1.0, 0.0, 0.0, 1.0, 1.0, 256.0, 1.0, 1.608195815110472E9, 2020-12-17 14:48:35.110
124.0, 36536.203125, 31827.408203125, 26141.5703125, 24315.947265625, 30176.150390625, 32574.11328125, 33274.9296875, 27326.638671875, 0.0, 0.0, 0.0, 193.0, 0.0, 1.0, 1.0, 0.0, 0.0, 1.0, 1.0, 256.0, 1.0, 1.608195815110473E9, 2020-12-17 14:48:35.110
125.0, 36508.66796875, 31791.0859375, 26104.66796875, 24275.8046875, 30153.0390625, 32517.294921875, 33239.5703125, 27290.62890625, 0.0, 0.0, 0.0, 193.0, 0.0, 1.0, 1.0, 0.0, 0.0, 1.0, 1.0, 256.0, 1.0, 1.608195815110475E9, 2020-12-17 14:48:35.110
126.0, 36553.16796875, 31840.685546875, 26153.57421875, 24321.357421875, 30175.123046875, 32575.275390625, 33285.5234375, 27332.359375, 0.0, 0.0, 0.0, 193.0, 0.0, 1.0, 1.0, 0.0, 0.0, 1.0, 1.0, 256.0, 1.0, 1.608195815110476E9, 2020-12-17 14:48:35.110
127.0, 36625.41015625, 31913.283203125, 26224.31640625, 24397.15234375, 30212.650390625, 32650.3984375, 33345.08984375, 27389.333984375, 0.0, 0.0, 0.0, 193.0, 0.0, 1.0, 1.0, 0.0, 0.0, 1.0, 1.0, 256.0, 1.0, 1.608195815110477E9, 2020-12-17 14:48:35.110
128.0, 36596.3515625, 31893.435546875, 26202.79296875, 24382.0859375, 30204.9609375, 32629.208984375, 33325.7578125, 27380.640625, 0.0, 0.0, 0.0, 193.0, 0.0, 1.0, 1.0, 0.0, 0.0, 1.0, 1.0, 256.0, 1.0, 1.608195815110479E9, 2020-12-17 14:48:35.110
129.0, 36535.06640625, 31831.833984375, 26145.416015625, 24323.904296875, 30170.025390625, 32569.26171875, 33276.29296875, 27328.94140625, 0.0, 0.0, 0.0, 193.0, 0.0, 1.0, 1.0, 0.0, 0.0, 1.0, 1.0, 256.0, 1.0, 1.60819581511048E9, 2020-12-17 14:48:35.110
130.0, 36506.3671875, 31790.884765625, 26105.583984375, 24275.9609375, 30145.484375, 32524.8046875, 33243.390625, 27294.853515625, 0.0, 0.0, 0.0, 193.0, 0.0, 1.0, 1.0, 0.0, 0.0, 1.0, 1.0, 256.0, 1.0, 1.608195815110482E9, 2020-12-17 14:48:35.110
131.0, 36550.2421875, 31836.169921875, 26148.27734375, 24316.86328125, 30167.8359375, 32575.609375, 33270.390625, 27325.431640625, 0.0, 0.0, 0.0, 193.0, 0.0, 1.0, 1.0, 0.0, 0.0, 1.0, 1.0, 256.0, 1.0, 1.608195815110483E9, 2020-12-17 14:48:35.110
132.0, 36608.06640625, 31908.25390625, 26217.857421875, 24383.607421875, 30192.04296875, 32630.662109375, 33319.921875, 27381.712890625, 0.0, 0.0, 0.0, 193.0, 0.0, 1.0, 1.0, 0.0, 0.0, 1.0, 1.0, 256.0, 1.0, 1.608195815110484E9, 2020-12-17 14:48:35.110
133.0, 36587.01171875, 31894.373046875, 26206.369140625, 24366.73046875, 30184.041015625, 32617.36328125, 33334.69921875, 27396.576171875, 0.0, 0.0, 0.0, 193.0, 0.0, 1.0, 1.0, 0.0, 0.0, 1.0, 1.0, 256.0, 1.0, 1.608195815110486E9, 2020-12-17 14:48:35.110
134.0, 36529.3671875, 31828.994140625, 26140.966796875, 24301.798828125, 30144.142578125, 32553.4140625, 33287.06640625, 27337.58984375, 0.0, 0.0, 0.0, 193.0, 0.0, 1.0, 1.0, 0.0, 0.0, 1.0, 1.0, 256.0, 1.0, 1.608195815110487E9, 2020-12-17 14:48:35.110
135.0, 36496.171875, 31791.197265625, 26106.1875, 24268.71875, 30127.6015625, 32514.5234375, 33246.4296875, 27295.814453125, 0.0, 0.0, 0.0, 193.0, 0.0, 1.0, 1.0, 0.0, 0.0, 1.0, 1.0, 256.0, 1.0, 1.608195815110489E9, 2020-12-17 14:48:35.110
136.0, 36549.66015625, 31837.98046875, 26151.8984375, 24323.056640625, 30171.544921875, 32564.658203125, 33274.1484375, 27329.90234375, 0.0, 0.0, 0.0, 193.0, 0.0, 1.0, 1.0, 0.0, 0.0, 1.0, 1.0, 256.0, 1.0, 1.608195815172096E9, 2020-12-17 14:48:35.172
137.0, 36604.3984375, 31903.4921875, 26214.52734375, 24380.6328125, 30195.439453125, 32619.642578125, 33318.94140625, 27386.83203125, 0.0, 0.0, 0.0, 193.0, 0.0, 1.0, 1.0, 0.0, 0.0, 1.0, 1.0, 256.0, 1.0, 1.608195815172102E9, 2020-12-17 14:48:35.172
138.0, 36590.98828125, 31879.576171875, 26192.01953125, 24359.623046875, 30187.505859375, 32605.830078125, 33296.5859375, 27369.173828125, 0.0, 0.0, 0.0, 193.0, 0.0, 1.0, 1.0, 0.0, 0.0, 1.0, 1.0, 256.0, 1.0, 1.608195815172104E9, 2020-12-17 14:48:35.172
139.0, 36543.42578125, 31827.296875, 26148.142578125, 24322.697265625, 30157.77734375, 32558.17578125, 33273.09765625, 27332.78515625, 0.0, 0.0, 0.0, 193.0, 0.0, 1.0, 1.0, 0.0, 0.0, 1.0, 1.0, 256.0, 1.0, 1.608195815172106E9, 2020-12-17 14:48:35.172
140.0, 36514.90234375, 31794.841796875, 26115.84375, 24288.5, 30146.736328125, 32532.248046875, 33254.5, 27306.701171875, 0.0, 0.0, 0.0, 193.0, 0.0, 1.0, 1.0, 0.0, 0.0, 1.0, 1.0, 256.0, 1.0, 1.608195815172108E9, 2020-12-17 14:48:35.172
141.0, 36558.04296875, 31842.740234375, 26162.716796875, 24333.248046875, 30177.06640625, 32592.84375, 33297.97265625, 27346.888671875, 0.0, 0.0, 0.0, 193.0, 0.0, 1.0, 1.0, 0.0, 0.0, 1.0, 1.0, 256.0, 1.0, 1.60819581517211E9, 2020-12-17 14:48:35.172
142.0, 36619.15234375, 31899.873046875, 26215.755859375, 24389.529296875, 30208.158203125, 32638.84375, 33338.69921875, 27398.298828125, 0.0, 0.0, 0.0, 193.0, 0.0, 1.0, 1.0, 0.0, 0.0, 1.0, 1.0, 256.0, 1.0, 1.608195815172112E9, 2020-12-17 14:48:35.172
143.0, 36604.37890625, 31884.76171875, 26198.970703125, 24367.37890625, 30190.25390625, 32616.3125, 33322.8515625, 27383.859375, 0.0, 0.0, 0.0, 193.0, 0.0, 1.0, 1.0, 0.0, 0.0, 1.0, 1.0, 256.0, 1.0, 1.608195815172113E9, 2020-12-17 14:48:35.172
144.0, 36543.4453125, 31824.390625, 26140.119140625, 24306.158203125, 30155.609375, 32537.58984375, 33264.66796875, 27330.125, 0.0, 0.0, 0.0, 193.0, 0.0, 1.0, 1.0, 0.0, 0.0, 1.0, 1.0, 256.0, 1.0, 1.608195815172115E9, 2020-12-17 14:48:35.172
145.0, 36506.1640625, 31782.345703125, 26105.697265625, 24277.32421875, 30147.3828125, 32517.40625, 33238.40625, 27302.365234375, 0.0, 0.0, 0.0, 193.0, 0.0, 1.0, 1.0, 0.0, 0.0, 1.0, 1.0, 256.0, 1.0, 1.608195815172124E9, 2020-12-17 14:48:35.172
146.0, 36533.5, 31826.625, 26149.484375, 24311.677734375, 30158.044921875, 32563.607421875, 33286.1484375, 27338.552734375, 0.0, 0.0, 0.0, 193.0, 0.0, 1.0, 1.0, 0.0, 0.0, 1.0, 1.0, 256.0, 1.0, 1.608195815172126E9, 2020-12-17 14:48:35.172
147.0, 36587.97265625, 31896.51953125, 26215.0859375, 24380.365234375, 30194.791015625, 32629.791015625, 33338.65234375, 27395.97265625, 0.0, 0.0, 0.0, 193.0, 0.0, 1.0, 1.0, 0.0, 0.0, 1.0, 1.0, 256.0, 1.0, 1.608195815172128E9, 2020-12-17 14:48:35.172
148.0, 36586.36328125, 31881.140625, 26196.6015625, 24367.826171875, 30192.466796875, 32607.640625, 33314.3359375, 27390.384765625, 0.0, 0.0, 0.0, 193.0, 0.0, 1.0, 1.0, 0.0, 0.0, 1.0, 1.0, 256.0, 1.0, 1.60819581517213E9, 2020-12-17 14:48:35.172
149.0, 36537.43359375, 31820.947265625, 26139.939453125, 24306.91796875, 30147.00390625, 32548.67578125, 33266.7265625, 27329.56640625, 0.0, 0.0, 0.0, 193.0, 0.0, 1.0, 1.0, 0.0, 0.0, 1.0, 1.0, 256.0, 1.0, 1.608195815172132E9, 2020-12-17 14:48:35.172
150.0, 36522.34765625, 31783.53125, 26107.462890625, 24280.921875, 30147.541015625, 32537.56640625, 33250.4765625, 27313.451171875, 0.0, 0.0, 0.0, 193.0, 0.0, 1.0, 1.0, 0.0, 0.0, 1.0, 1.0, 256.0, 1.0, 1.608195815172134E9, 2020-12-17 14:48:35.172
151.0, 36576.328125, 31837.755859375, 26156.63671875, 24328.21875, 30178.720703125, 32564.43359375, 33278.90625, 27346.7109375, 0.0, 0.0, 0.0, 193.0, 0.0, 1.0, 1.0, 0.0, 0.0, 1.0, 1.0, 256.0, 1.0, 1.608195815230101E9, 2020-12-17 14:48:35.230
152.0, 36628.94140625, 31910.220703125, 26225.814453125, 24400.2578125, 30211.82421875, 32627.01953125, 33334.1171875, 27397.158203125, 0.0, 0.0, 0.0, 193.0, 0.0, 1.0, 1.0, 0.0, 0.0, 1.0, 1.0, 256.0, 1.0, 1.608195815230112E9, 2020-12-17 14:48:35.230
153.0, 36592.9765625, 31889.298828125, 26210.16796875, 24383.494140625, 30201.408203125, 32628.271484375, 33331.45703125, 27387.412109375, 0.0, 0.0, 0.0, 193.0, 0.0, 1.0, 1.0, 0.0, 0.0, 1.0, 1.0, 256.0, 1.0, 1.608195815230115E9, 2020-12-17 14:48:35.230
154.0, 36541.6796875, 31829.62109375, 26151.115234375, 24322.654296875, 30174.1171875, 32575.029296875, 33276.29296875, 27332.962890625, 0.0, 0.0, 0.0, 193.0, 0.0, 1.0, 1.0, 0.0, 0.0, 1.0, 1.0, 256.0, 1.0, 1.608195815230118E9, 2020-12-17 14:48:35.230
155.0, 36519.46484375, 31795.958984375, 26116.6484375, 24284.140625, 30151.474609375, 32533.1640625, 33240.93359375, 27286.181640625, 0.0, 0.0, 0.0, 193.0, 0.0, 1.0, 1.0, 0.0, 0.0, 1.0, 1.0, 256.0, 1.0, 1.608195815230121E9, 2020-12-17 14:48:35.230
156.0, 36579.14453125, 31850.4296875, 26173.19921875, 24347.642578125, 30197.451171875, 32584.70703125, 33288.31640625, 27329.455078125, 0.0, 0.0, 0.0, 193.0, 0.0, 1.0, 1.0, 0.0, 0.0, 1.0, 1.0, 256.0, 1.0, 1.608195815230125E9, 2020-12-17 14:48:35.230
157.0, 36647.16015625, 31931.5, 26255.921875, 24438.994140625, 30254.716796875, 32674.806640625, 33369.453125, 27412.333984375, 0.0, 0.0, 0.0, 193.0, 0.0, 1.0, 1.0, 0.0, 0.0, 1.0, 1.0, 256.0, 1.0, 1.608195815230128E9, 2020-12-17 14:48:35.230
158.0, 36635.26953125, 31910.935546875, 26229.16796875, 24415.591796875, 30249.84375, 32648.431640625, 33348.375, 27404.265625, 0.0, 0.0, 0.0, 193.0, 0.0, 1.0, 1.0, 0.0, 0.0, 1.0, 1.0, 256.0, 1.0, 1.608195815230131E9, 2020-12-17 14:48:35.230
159.0, 36569.8203125, 31844.88671875, 26168.19140625, 24351.083984375, 30215.421875, 32606.92578125, 33309.4609375, 27352.25390625, 0.0, 0.0, 0.0, 193.0, 0.0, 1.0, 1.0, 0.0, 0.0, 1.0, 1.0, 256.0, 1.0, 1.608195815230134E9, 2020-12-17 14:48:35.230
160.0, 36525.69921875, 31806.28515625, 26133.591796875, 24308.662109375, 30178.1171875, 32574.08984375, 33293.61328125, 27338.306640625, 0.0, 0.0, 0.0, 193.0, 0.0, 1.0, 1.0, 0.0, 0.0, 1.0, 1.0, 256.0, 1.0, 1.608195815230137E9, 2020-12-17 14:48:35.230
161.0, 36550.35546875, 31846.853515625, 26172.013671875, 24335.55078125, 30165.869140625, 32584.6171875, 33312.7265625, 27381.69140625, 0.0, 0.0, 0.0, 193.0, 0.0, 1.0, 1.0, 0.0, 0.0, 1.0, 1.0, 256.0, 1.0, 1.60819581523014E9, 2020-12-17 14:48:35.230
162.0, 36618.546875, 31908.25390625, 26228.162109375, 24393.21875, 30188.623046875, 32628.806640625, 33349.76171875, 27436.943359375, 0.0, 0.0, 0.0, 193.0, 0.0, 1.0, 1.0, 0.0, 0.0, 1.0, 1.0, 256.0, 1.0, 1.608195815230143E9, 2020-12-17 14:48:35.230
163.0, 36599.23828125, 31898.12890625, 26218.505859375, 24374.3984375, 30174.787109375, 32619.375, 33345.11328125, 27426.439453125, 0.0, 0.0, 0.0, 193.0, 0.0, 1.0, 1.0, 0.0, 0.0, 1.0, 1.0, 256.0, 1.0, 1.608195815230146E9, 2020-12-17 14:48:35.230
164.0, 36536.2265625, 31824.322265625, 26141.884765625, 24300.390625, 30129.970703125, 32531.263671875, 33266.12109375, 27366.3125, 0.0, 0.0, 0.0, 193.0, 0.0, 1.0, 1.0, 0.0, 0.0, 1.0, 1.0, 256.0, 1.0, 1.60819581523015E9, 2020-12-17 14:48:35.230
165.0, 36490.31640625, 31773.875, 26096.0859375, 24252.111328125, 30082.630859375, 32479.408203125, 33234.42578125, 27327.263671875, 0.0, 0.0, 0.0, 193.0, 0.0, 1.0, 1.0, 0.0, 0.0, 1.0, 1.0, 256.0, 1.0, 1.608195815230153E9, 2020-12-17 14:48:35.230
166.0, 36527.98046875, 31821.5078125, 26142.845703125, 24298.0, 30097.091796875, 32520.04296875, 33264.9140625, 27352.3203125, 0.0, 0.0, 0.0, 193.0, 0.0, 1.0, 1.0, 0.0, 0.0, 1.0, 1.0, 256.0, 1.0, 1.608195815289898E9, 2020-12-17 14:48:35.289
167.0, 36595.19140625, 31894.619140625, 26208.73828125, 24367.8046875, 30154.15625, 32592.306640625, 33302.53515625, 27389.826171875, 0.0, 0.0, 0.0, 193.0, 0.0, 1.0, 1.0, 0.0, 0.0, 1.0, 1.0, 256.0, 1.0, 1.608195815289905E9, 2020-12-17 14:48:35.289
168.0, 36581.19921875, 31875.375, 26192.5546875, 24353.72265625, 30153.9765625, 32582.001953125, 33300.05078125, 27381.9140625, 0.0, 0.0, 0.0, 193.0, 0.0, 1.0, 1.0, 0.0, 0.0, 1.0, 1.0, 256.0, 1.0, 1.608195815289907E9, 2020-12-17 14:48:35.289
169.0, 36535.578125, 31813.794921875, 26139.291015625, 24303.85546875, 30141.68359375, 32540.33984375, 33264.66796875, 27333.92578125, 0.0, 0.0, 0.0, 193.0, 0.0, 1.0, 1.0, 0.0, 0.0, 1.0, 1.0, 256.0, 1.0, 1.608195815289916E9, 2020-12-17 14:48:35.289
170.0, 36506.43359375, 31774.724609375, 26100.220703125, 24260.091796875, 30117.208984375, 32487.677734375, 33218.84765625, 27283.455078125, 0.0, 0.0, 0.0, 193.0, 0.0, 1.0, 1.0, 0.0, 0.0, 1.0, 1.0, 256.0, 1.0, 1.608195815289918E9, 2020-12-17 14:48:35.289
171.0, 36565.0390625, 31839.25390625, 26164.4375, 24327.927734375, 30151.18359375, 32536.16015625, 33262.546875, 27327.017578125, 0.0, 0.0, 0.0, 193.0, 0.0, 1.0, 1.0, 0.0, 0.0, 1.0, 1.0, 256.0, 1.0, 1.60819581528992E9, 2020-12-17 14:48:35.289
172.0, 36620.73828125, 31910.265625, 26235.001953125, 24402.873046875, 30201.5859375, 32630.484375, 33337.15625, 27397.11328125, 0.0, 0.0, 0.0, 193.0, 0.0, 1.0, 1.0, 0.0, 0.0, 1.0, 1.0, 256.0, 1.0, 1.608195815289922E9, 2020-12-17 14:48:35.289
173.0, 36603.08203125, 31892.96484375, 26213.052734375, 24377.638671875, 30202.078125, 32614.837890625, 33324.23828125, 27395.548828125, 0.0, 0.0, 0.0, 193.0, 0.0, 1.0, 1.0, 0.0, 0.0, 1.0, 1.0, 256.0, 1.0, 1.608195815289924E9, 2020-12-17 14:48:35.289
174.0, 36547.76171875, 31829.509765625, 26149.23828125, 24311.857421875, 30161.8671875, 32553.458984375, 33272.46875, 27340.921875, 0.0, 0.0, 0.0, 193.0, 0.0, 1.0, 1.0, 0.0, 0.0, 1.0, 1.0, 256.0, 1.0, 1.608195815289927E9, 2020-12-17 14:48:35.289
175.0, 36513.31640625, 31792.271484375, 26118.369140625, 24275.78125, 30134.083984375, 32519.439453125, 33257.7421875, 27311.349609375, 0.0, 0.0, 0.0, 193.0, 0.0, 1.0, 1.0, 0.0, 0.0, 1.0, 1.0, 256.0, 1.0, 1.608195815289929E9, 2020-12-17 14:48:35.289
176.0, 36562.3125, 31834.046875, 26151.294921875, 24310.6953125, 30160.28125, 32539.892578125, 33260.15625, 27335.04296875, 0.0, 0.0, 0.0, 193.0, 0.0, 1.0, 1.0, 0.0, 0.0, 1.0, 1.0, 256.0, 1.0, 1.608195815289931E9, 2020-12-17 14:48:35.289
177.0, 36615.8203125, 31906.5546875, 26217.611328125, 24375.76171875, 30190.1640625, 32581.197265625, 33292.1171875, 27373.734375, 0.0, 0.0, 0.0, 193.0, 0.0, 1.0, 1.0, 0.0, 0.0, 1.0, 1.0, 256.0, 1.0, 1.608195815289933E9, 2020-12-17 14:48:35.289
178.0, 36601.2265625, 31896.51953125, 26212.359375, 24378.0625, 30189.203125, 32593.4921875, 33306.35546875, 27374.046875, 0.0, 0.0, 0.0, 193.0, 0.0, 1.0, 1.0, 0.0, 0.0, 1.0, 1.0, 256.0, 1.0, 1.608195815289935E9, 2020-12-17 14:48:35.289
179.0, 36548.453125, 31829.955078125, 26149.4609375, 24310.29296875, 30161.041015625, 32540.65234375, 33265.16015625, 27329.052734375, 0.0, 0.0, 0.0, 193.0, 0.0, 1.0, 1.0, 0.0, 0.0, 1.0, 1.0, 256.0, 1.0, 1.608195815289937E9, 2020-12-17 14:48:35.289
180.0, 36510.4765625, 31784.984375, 26107.306640625, 24264.203125, 30128.451171875, 32503.615234375, 33233.2421875, 27294.630859375, 0.0, 0.0, 0.0, 193.0, 0.0, 1.0, 1.0, 0.0, 0.0, 1.0, 1.0, 256.0, 1.0, 1.60819581528994E9, 2020-12-17 14:48:35.289
181.0, 36563.00390625, 31842.09375, 26162.89453125, 24323.8828125, 30159.72265625, 32540.181640625, 33271.26171875, 27328.380859375, 0.0, 0.0, 0.0, 193.0, 0.0, 1.0, 1.0, 0.0, 0.0, 1.0, 1.0, 256.0, 1.0, 1.608195815350167E9, 2020-12-17 14:48:35.350
182.0, 36625.03125, 31904.833984375, 26227.580078125, 24395.921875, 30203.955078125, 32617.408203125, 33325.734375, 27391.32421875, 0.0, 0.0, 0.0, 193.0, 0.0, 1.0, 1.0, 0.0, 0.0, 1.0, 1.0, 256.0, 1.0, 1.608195815350171E9, 2020-12-17 14:48:35.350
183.0, 36620.203125, 31891.87109375, 26207.375, 24373.4140625, 30201.408203125, 32595.615234375, 33303.71875, 27383.970703125, 0.0, 0.0, 0.0, 193.0, 0.0, 1.0, 1.0, 0.0, 0.0, 1.0, 1.0, 256.0, 1.0, 1.608195815350172E9, 2020-12-17 14:48:35.350
184.0, 36547.359375, 31829.3515625, 26143.962890625, 24301.77734375, 30150.892578125, 32523.6875, 33259.91015625, 27334.37109375, 0.0, 0.0, 0.0, 193.0, 0.0, 1.0, 1.0, 0.0, 0.0, 1.0, 1.0, 256.0, 1.0, 1.608195815350173E9, 2020-12-17 14:48:35.350
185.0, 36511.7734375, 31788.203125, 26110.033203125, 24266.169921875, 30135.24609375, 32501.423828125, 33230.6484375, 27296.642578125, 0.0, 0.0, 0.0, 193.0, 0.0, 1.0, 1.0, 0.0, 0.0, 1.0, 1.0, 256.0, 1.0, 1.608195815350175E9, 2020-12-17 14:48:35.350
186.0, 36562.0, 31841.646484375, 26162.8046875, 24317.4453125, 30162.091796875, 32544.763671875, 33265.7890625, 27328.091796875, 0.0, 0.0, 0.0, 193.0, 0.0, 1.0, 1.0, 0.0, 0.0, 1.0, 1.0, 256.0, 1.0, 1.608195815350176E9, 2020-12-17 14:48:35.350
187.0, 36627.01953125, 31911.3828125, 26229.279296875, 24396.66015625, 30212.29296875, 32613.67578125, 33329.3125, 27396.77734375, 0.0, 0.0, 0.0, 193.0, 0.0, 1.0, 1.0, 0.0, 0.0, 1.0, 1.0, 256.0, 1.0, 1.608195815350178E9, 2020-12-17 14:48:35.350
188.0, 36629.76953125, 31907.673828125, 26230.955078125, 24400.90625, 30218.26171875, 32627.599609375, 33347.75, 27402.1875, 0.0, 0.0, 0.0, 193.0, 0.0, 1.0, 1.0, 0.0, 0.0, 1.0, 1.0, 256.0, 1.0, 1.608195815350179E9, 2020-12-17 14:48:35.350
189.0, 36565.23828125, 31840.685546875, 26166.939453125, 24325.380859375, 30178.943359375, 32571.69921875, 33297.4140625, 27354.9140625, 0.0, 0.0, 0.0, 193.0, 0.0, 1.0, 1.0, 0.0, 0.0, 1.0, 1.0, 256.0, 1.0, 1.60819581535018E9, 2020-12-17 14:48:35.350
190.0, 36513.875, 31792.248046875, 26114.4140625, 24263.869140625, 30142.95703125, 32501.423828125, 33237.46875, 27302.365234375, 0.0, 0.0, 0.0, 193.0, 0.0, 1.0, 1.0, 0.0, 0.0, 1.0, 1.0, 256.0, 1.0, 1.608195815350182E9, 2020-12-17 14:48:35.350
191.0, 36547.76171875, 31823.65234375, 26142.576171875, 24304.2578125, 30166.337890625, 32536.560546875, 33251.1015625, 27319.775390625, 0.0, 0.0, 0.0, 193.0, 0.0, 1.0, 1.0, 0.0, 0.0, 1.0, 1.0, 256.0, 1.0, 1.608195815350183E9, 2020-12-17 14:48:35.350
192.0, 36620.203125, 31896.85546875, 26211.12890625, 24377.50390625, 30211.98046875, 32594.943359375, 33306.9140625, 27382.40625, 0.0, 0.0, 0.0, 193.0, 0.0, 1.0, 1.0, 0.0, 0.0, 1.0, 1.0, 256.0, 1.0, 1.608195815350192E9, 2020-12-17 14:48:35.350
193.0, 36614.859375, 31889.880859375, 26206.705078125, 24370.822265625, 30203.84375, 32584.73046875, 33321.15234375, 27378.71875, 0.0, 0.0, 0.0, 193.0, 0.0, 1.0, 1.0, 0.0, 0.0, 1.0, 1.0, 256.0, 1.0, 1.608195815350193E9, 2020-12-17 14:48:35.350
194.0, 36567.38671875, 31836.28125, 26156.63671875, 24319.76953125, 30172.060546875, 32544.763671875, 33283.55859375, 27331.779296875, 0.0, 0.0, 0.0, 193.0, 0.0, 1.0, 1.0, 0.0, 0.0, 1.0, 1.0, 256.0, 1.0, 1.608195815350195E9, 2020-12-17 14:48:35.350
195.0, 36520.984375, 31789.56640625, 26112.111328125, 24272.40625, 30142.064453125, 32500.5078125, 33244.26171875, 27296.53125, 0.0, 0.0, 0.0, 193.0, 0.0, 1.0, 1.0, 0.0, 0.0, 1.0, 1.0, 256.0, 1.0, 1.608195815350196E9, 2020-12-17 14:48:35.350
196.0, 36558.78125, 31828.63671875, 26151.205078125, 24318.00390625, 30176.888671875, 32546.552734375, 33268.2890625, 27329.857421875, 0.0, 0.0, 0.0, 193.0, 0.0, 1.0, 1.0, 0.0, 0.0, 1.0, 1.0, 256.0, 1.0, 1.608195815410419E9, 2020-12-17 14:48:35.410
197.0, 36630.7734375, 31913.26171875, 26233.212890625, 24405.376953125, 30230.64453125, 32620.26953125, 33344.95703125, 27394.20703125, 0.0, 0.0, 0.0, 193.0, 0.0, 1.0, 1.0, 0.0, 0.0, 1.0, 1.0, 256.0, 1.0, 1.608195815410429E9, 2020-12-17 14:48:35.410
198.0, 36616.76171875, 31907.62890625, 26224.787109375, 24398.693359375, 30210.86328125, 32631.66796875, 33347.19140625, 27391.345703125, 0.0, 0.0, 0.0, 193.0, 0.0, 1.0, 1.0, 0.0, 0.0, 1.0, 1.0, 256.0, 1.0, 1.608195815410433E9, 2020-12-17 14:48:35.410
199.0, 36540.98828125, 31832.28125, 26156.904296875, 24310.3828125, 30156.90625, 32553.884765625, 33309.59765625, 27347.0234375, 0.0, 0.0, 0.0, 193.0, 0.0, 1.0, 1.0, 0.0, 0.0, 1.0, 1.0, 256.0, 1.0, 1.608195815410438E9, 2020-12-17 14:48:35.410
200.0, 36509.0703125, 31777.00390625, 26103.259765625, 24252.0, 30130.330078125, 32482.447265625, 33281.0546875, 27313.541015625, 0.0, 0.0, 0.0, 193.0, 0.0, 1.0, 1.0, 0.0, 0.0, 1.0, 1.0, 256.0, 1.0, 1.608195815410442E9, 2020-12-17 14:48:35.410
201.0, 36566.1328125, 31828.63671875, 26148.34375, 24307.833984375, 30166.494140625, 32534.818359375, 33272.0, 27329.25390625, 0.0, 0.0, 0.0, 193.0, 0.0, 1.0, 1.0, 0.0, 0.0, 1.0, 1.0, 256.0, 1.0, 1.608195815410447E9, 2020-12-17 14:48:35.410
202.0, 36618.546875, 31898.44140625, 26210.794921875, 24373.59375, 30215.958984375, 32609.3828125, 33296.296875, 27378.962890625, 0.0, 0.0, 0.0, 193.0, 0.0, 1.0, 1.0, 0.0, 0.0, 1.0, 1.0, 256.0, 1.0, 1.608195815410451E9, 2020-12-17 14:48:35.410
203.0, 36618.4375, 31896.20703125, 26210.19140625, 24374.8671875, 30223.0, 32612.84765625, 33304.27734375, 27378.60546875, 0.0, 0.0, 0.0, 193.0, 0.0, 1.0, 1.0, 0.0, 0.0, 1.0, 1.0, 256.0, 1.0, 1.608195815410456E9, 2020-12-17 14:48:35.410
204.0, 36570.359375, 31840.05859375, 26159.05078125, 24317.625, 30186.38671875, 32550.263671875, 33279.98046875, 27350.3984375, 0.0, 0.0, 0.0, 193.0, 0.0, 1.0, 1.0, 0.0, 0.0, 1.0, 1.0, 256.0, 1.0, 1.60819581541046E9, 2020-12-17 14:48:35.410
205.0, 36523.890625, 31789.611328125, 26112.134765625, 24264.248046875, 30143.2265625, 32504.083984375, 33238.96484375, 27305.6953125, 0.0, 0.0, 0.0, 193.0, 0.0, 1.0, 1.0, 0.0, 0.0, 1.0, 1.0, 256.0, 1.0, 1.608195815410465E9, 2020-12-17 14:48:35.410
206.0, 36558.625, 31824.078125, 26147.62890625, 24302.447265625, 30168.05859375, 32537.857421875, 33273.765625, 27328.716796875, 0.0, 0.0, 0.0, 193.0, 0.0, 1.0, 1.0, 0.0, 0.0, 1.0, 1.0, 256.0, 1.0, 1.608195815410469E9, 2020-12-17 14:48:35.410
207.0, 36635.04296875, 31909.3046875, 26233.482421875, 24401.533203125, 30226.798828125, 32627.041015625, 33354.390625, 27395.1015625, 0.0, 0.0, 0.0, 193.0, 0.0, 1.0, 1.0, 0.0, 0.0, 1.0, 1.0, 256.0, 1.0, 1.608195815410474E9, 2020-12-17 14:48:35.410
208.0, 36620.29296875, 31902.12890625, 26231.626953125, 24398.068359375, 30216.16015625, 32626.7734375, 33389.125, 27405.5390625, 0.0, 0.0, 0.0, 193.0, 0.0, 1.0, 1.0, 0.0, 0.0, 1.0, 1.0, 256.0, 1.0, 1.608195815410478E9, 2020-12-17 14:48:35.410
209.0, 36572.078125, 31831.431640625, 26162.73828125, 24330.96875, 30193.583984375, 32571.251953125, 33319.07421875, 27348.69921875, 0.0, 0.0, 0.0, 193.0, 0.0, 1.0, 1.0, 0.0, 0.0, 1.0, 1.0, 256.0, 1.0, 1.608195815410483E9, 2020-12-17 14:48:35.410
210.0, 36542.328125, 31796.5625, 26120.5390625, 24298.916015625, 30196.490234375, 32538.328125, 33263.84375, 27303.83984375, 0.0, 0.0, 0.0, 193.0, 0.0, 1.0, 1.0, 0.0, 0.0, 1.0, 1.0, 256.0, 1.0, 1.608195815410487E9, 2020-12-17 14:48:35.410
